Hs 4.50 m
Tp 8.00 s
Pierson Moskowitz
  wp 0.79
  cte 2.41
JONSWAP
  wp 0.79
  gamma 4.11
  norm 0.59
Check Hs 4.51 m

Spectrum

         T          w         PM         JS        amp        phi 
       [s]     [rd/s]   [m2s/rd]   [m2s/rd]        [m]       [rd] 
       1.0      6.283      0.000      0.000      0.007     -1.563
       1.0      6.106      0.000      0.000      0.008      0.200
       1.1      5.938      0.000      0.000      0.008      1.452
       1.1      5.780      0.000      0.000      0.008     -2.656
       1.1      5.630      0.000      0.000      0.008      0.022
       1.1      5.487      0.000      0.000      0.009     -0.368
       1.2      5.351      0.001      0.000      0.009      0.914
       1.2      5.222      0.001      0.000      0.010     -0.143
       1.2      5.099      0.001      0.000      0.010      0.994
       1.3      4.982      0.001      0.000      0.010      0.406
       1.3      4.870      0.001      0.001      0.011      0.395
       1.3      4.762      0.001      0.001      0.011      1.369
       1.3      4.660      0.001      0.001      0.011     -0.643
       1.4      4.562      0.001      0.001      0.012      0.905
       1.4      4.468      0.001      0.001      0.012     -0.712
       1.4      4.377      0.001      0.001      0.012     -1.919
       1.5      4.290      0.002      0.001      0.013      1.367
       1.5      4.207      0.002      0.001      0.013      0.916
       1.5      4.127      0.002      0.001      0.014      2.248
       1.6      4.050      0.002      0.001      0.014     -1.458
       1.6      3.975      0.002      0.001      0.014     -1.321
       1.6      3.904      0.003      0.002      0.015      1.868
       1.6      3.834      0.003      0.002      0.015     -2.726
       1.7      3.768      0.003      0.002      0.016      2.212
       1.7      3.703      0.003      0.002      0.016     -1.139
       1.7      3.641      0.004      0.002      0.016     -2.246
       1.8      3.581      0.004      0.002      0.017     -0.568
       1.8      3.522      0.004      0.003      0.017      1.027
       1.8      3.466      0.005      0.003      0.018     -0.485
       1.8      3.411      0.005      0.003      0.018     -3.011
       1.9      3.358      0.006      0.003      0.019      1.773
       1.9      3.307      0.006      0.004      0.019      1.777
       1.9      3.257      0.007      0.004      0.019      0.466
       2.0      3.209      0.007      0.004      0.020     -0.775
       2.0      3.162      0.008      0.005      0.020     -1.439
       2.0      3.117      0.008      0.005      0.021      1.178
       2.0      3.072      0.009      0.005      0.021      0.779
       2.1      3.029      0.009      0.006      0.022     -1.224
       2.1      2.988      0.010      0.006      0.022     -2.232
       2.1      2.947      0.011      0.006      0.023     -0.556
       2.2      2.907      0.012      0.007      0.023     -0.321
       2.2      2.869      0.012      0.007      0.023      1.504
       2.2      2.831      0.013      0.008      0.024     -0.538
       2.2      2.795      0.014      0.008      0.024      3.073
       2.3      2.759      0.015      0.009      0.025     -1.593
       2.3      2.724      0.016      0.009      0.025      1.182
       2.3      2.690      0.017      0.010      0.026      1.556
       2.4      2.657      0.018      0.011      0.026      2.110
       2.4      2.625      0.019      0.011      0.027     -3.056
       2.4      2.594      0.020      0.012      0.027      2.688
       2.5      2.563      0.022      0.013      0.028     -3.034
       2.5      2.533      0.023      0.014      0.028     -1.709
       2.5      2.504      0.024      0.014      0.029      1.484
       2.5      2.475      0.026      0.015      0.029      0.348
       2.6      2.447      0.027      0.016      0.030     -1.469
       2.6      2.420      0.029      0.017      0.030      0.206
       2.6      2.393      0.030      0.018      0.031     -1.103
       2.7      2.367      0.032      0.019      0.031     -1.196
       2.7      2.341      0.034      0.020      0.032     -0.812
       2.7      2.316      0.036      0.021      0.032     -0.973
       2.7      2.292      0.037      0.022      0.033      2.027
       2.8      2.268      0.039      0.023      0.033     -2.728
       2.8      2.244      0.042      0.025      0.034     -2.009
       2.8      2.221      0.044      0.026      0.034     -1.935
       2.9      2.199      0.046      0.027      0.035      2.676
       2.9      2.176      0.048      0.029      0.035     -0.562
       2.9      2.155      0.051      0.030      0.036     -0.516
       2.9      2.134      0.053      0.032      0.036      2.862
       3.0      2.113      0.056      0.033      0.037     -1.035
       3.0      2.092      0.059      0.035      0.037      1.275
       3.0      2.072      0.061      0.037      0.038     -2.376
       3.1      2.053      0.064      0.038      0.038      1.084
       3.1      2.033      0.067      0.040      0.039      3.021
       3.1      2.014      0.071      0.042      0.039      0.177
       3.1      1.996      0.074      0.044      0.040      2.577
       3.2      1.978      0.077      0.046      0.041      2.319
       3.2      1.960      0.081      0.048      0.041      0.916
       3.2      1.942      0.084      0.050      0.042      2.829
       3.3      1.925      0.088      0.052      0.042      2.181
       3.3      1.908      0.092      0.055      0.043     -2.618
       3.3      1.891      0.096      0.057      0.043     -2.996
       3.4      1.875      0.100      0.059      0.044     -0.191
       3.4      1.859      0.104      0.062      0.044     -1.914
       3.4      1.843      0.109      0.065      0.045      1.473
       3.4      1.827      0.113      0.067      0.045      1.467
       3.5      1.812      0.118      0.070      0.046     -2.562
       3.5      1.797      0.123      0.073      0.046      2.103
       3.5      1.782      0.128      0.076      0.047      3.096
       3.6      1.768      0.133      0.079      0.048     -1.017
       3.6      1.753      0.138      0.082      0.048     -0.530
       3.6      1.739      0.144      0.085      0.049      0.796
       3.6      1.725      0.149      0.089      0.049      1.942
       3.7      1.712      0.155      0.092      0.050      2.370
       3.7      1.698      0.161      0.096      0.050     -2.262
       3.7      1.685      0.167      0.099      0.051      0.054
       3.8      1.672      0.173      0.103      0.051      1.624
       3.8      1.659      0.180      0.107      0.052      2.921
       3.8      1.647      0.186      0.111      0.052      2.564
       3.8      1.634      0.193      0.115      0.053      0.613
       3.9      1.622      0.200      0.119      0.054      2.220
       3.9      1.610      0.207      0.123      0.054      2.964
       3.9      1.598      0.215      0.128      0.055      2.401
       4.0      1.586      0.222      0.132      0.055     -2.610
       4.0      1.575      0.230      0.137      0.056      3.051
       4.0      1.563      0.238      0.142      0.056     -1.090
       4.0      1.552      0.246      0.146      0.057      2.912
       4.1      1.541      0.255      0.151      0.057     -1.870
       4.1      1.530      0.263      0.156      0.058     -2.198
       4.1      1.519      0.272      0.162      0.059     -0.196
       4.2      1.509      0.281      0.167      0.059     -2.762
       4.2      1.498      0.290      0.172      0.060     -2.861
       4.2      1.488      0.299      0.178      0.060     -2.458
       4.3      1.478      0.309      0.184      0.061     -0.108
       4.3      1.468      0.319      0.190      0.061     -1.183
       4.3      1.458      0.329      0.196      0.062      0.138
       4.3      1.448      0.339      0.202      0.062      0.940
       4.4      1.439      0.350      0.208      0.063      2.791
       4.4      1.429      0.360      0.214      0.063      1.074
       4.4      1.420      0.371      0.221      0.064     -1.678
       4.5      1.411      0.382      0.227      0.064     -2.524
       4.5      1.401      0.394      0.234      0.065     -3.076
       4.5      1.392      0.405      0.241      0.065      1.625
       4.5      1.383      0.417      0.248      0.066      0.205
       4.6      1.375      0.429      0.255      0.067     -1.645
       4.6      1.366      0.442      0.262      0.067     -1.330
       4.6      1.357      0.454      0.270      0.068     -0.697
       4.7      1.349      0.467      0.278      0.068      0.500
       4.7      1.341      0.480      0.285      0.069     -1.298
       4.7      1.332      0.493      0.293      0.069      0.037
       4.7      1.324      0.507      0.301      0.070      1.100
       4.8      1.316      0.520      0.309      0.070      0.894
       4.8      1.308      0.534      0.318      0.071     -2.299
       4.8      1.300      0.548      0.326      0.071      0.149
       4.9      1.293      0.563      0.335      0.072     -2.380
       4.9      1.285      0.577      0.343      0.072     -0.329
       4.9      1.277      0.592      0.352      0.073     -0.891
       4.9      1.270      0.607      0.361      0.073      1.349
       5.0      1.262      0.623      0.370      0.074      0.685
       5.0      1.255      0.638      0.379      0.074      2.201
       5.0      1.248      0.654      0.389      0.075     -0.591
       5.1      1.241      0.670      0.398      0.075     -1.602
       5.1      1.234      0.686      0.408      0.076      1.132
       5.1      1.227      0.703      0.418      0.076      0.669
       5.2      1.220      0.719      0.428      0.076     -0.853
       5.2      1.213      0.736      0.438      0.077     -1.349
       5.2      1.206      0.753      0.448      0.077     -2.982
       5.2      1.199      0.771      0.458      0.078      0.203
       5.3      1.193      0.788      0.469      0.078      0.736
       5.3      1.186      0.806      0.479      0.079      1.173
       5.3      1.180      0.824      0.490      0.079      0.537
       5.4      1.173      0.842      0.501      0.080      2.063
       5.4      1.167      0.860      0.511      0.080      3.126
       5.4      1.161      0.879      0.522      0.080     -2.210
       5.4      1.155      0.898      0.534      0.081     -2.085
       5.5      1.149      0.917      0.545      0.081      2.205
       5.5      1.143      0.936      0.556      0.082      0.608
       5.5      1.137      0.955      0.568      0.082     -0.543
       5.6      1.131      0.974      0.579      0.082      3.079
       5.6      1.125      0.994      0.591      0.083     -2.435
       5.6      1.119      1.014      0.603      0.083      2.452
       5.6      1.113      1.034      0.614      0.084      0.124
       5.7      1.107      1.054      0.626      0.084     -2.836
       5.7      1.102      1.074      0.638      0.084      1.828
       5.7      1.096      1.094      0.651      0.085     -1.053
       5.8      1.091      1.115      0.663      0.085      0.866
       5.8      1.085      1.135      0.675      0.085      1.447
       5.8      1.080      1.156      0.687      0.086      0.197
       5.8      1.074      1.177      0.700      0.086     -2.648
       5.9      1.069      1.198      0.712      0.087      0.191
       5.9      1.064      1.219      0.725      0.087      0.377
       5.9      1.059      1.240      0.738      0.087      2.002
       6.0      1.054      1.261      0.750      0.088      3.084
       6.0      1.048      1.282      0.763      0.088     -2.135
       6.0      1.043      1.304      0.776      0.088      0.013
       6.1      1.038      1.325      0.789      0.088      1.284
       6.1      1.033      1.346      0.803      0.089      0.524
       6.1      1.028      1.368      0.816      0.089     -0.126
       6.1      1.024      1.389      0.830      0.089      1.343
       6.2      1.019      1.411      0.844      0.090     -2.087
       6.2      1.014      1.432      0.858      0.090     -2.750
       6.2      1.009      1.454      0.872      0.090      2.739
       6.3      1.005      1.475      0.887      0.091     -2.126
       6.3      1.000      1.497      0.902      0.091      2.479
       6.3      0.995      1.518      0.918      0.091     -2.395
       6.3      0.991      1.539      0.934      0.092      1.350
       6.4      0.986      1.561      0.951      0.092     -3.113
       6.4      0.982      1.582      0.969      0.093      1.569
       6.4      0.977      1.603      0.987      0.093      0.816
       6.5      0.973      1.624      1.007      0.094     -1.466
       6.5      0.969      1.645      1.027      0.094     -2.191
       6.5      0.964      1.666      1.049      0.095      1.460
       6.5      0.960      1.687      1.072      0.095      2.659
       6.6      0.956      1.707      1.096      0.096     -2.302
       6.6      0.952      1.728      1.123      0.097      2.498
       6.6      0.947      1.748      1.151      0.097      1.181
       6.7      0.943      1.768      1.181      0.098      1.656
       6.7      0.939      1.788      1.213      0.099      0.738
       6.7      0.935      1.808      1.248      0.100     -2.827
       6.7      0.931      1.827      1.286      0.101      0.393
       6.8      0.927      1.846      1.326      0.102      1.358
       6.8      0.923      1.865      1.370      0.104     -1.162
       6.8      0.919      1.884      1.417      0.105     -0.363
       6.9      0.915      1.903      1.468      0.106     -0.133
       6.9      0.912      1.921      1.522      0.108     -2.883
       6.9      0.908      1.939      1.581      0.109     -2.787
       7.0      0.904      1.957      1.645      0.111     -1.572
       7.0      0.900      1.974      1.713      0.113     -0.524
       7.0      0.896      1.991      1.786      0.115      1.767
       7.0      0.893      2.008      1.865      0.117     -1.435
       7.1      0.889      2.025      1.949      0.119     -3.075
       7.1      0.885      2.041      2.038      0.121      1.738
       7.1      0.882      2.056      2.134      0.124     -1.939
       7.2      0.878      2.072      2.236      0.126     -1.113
       7.2      0.875      2.087      2.343      0.128      1.607
       7.2      0.871      2.101      2.457      0.131      0.700
       7.2      0.868      2.115      2.577      0.134     -2.056
       7.3      0.864      2.129      2.703      0.136      2.070
       7.3      0.861      2.142      2.835      0.139     -2.138
       7.3      0.857      2.155      2.972      0.142      1.907
       7.4      0.854      2.168      3.114      0.145      2.288
       7.4      0.851      2.180      3.261      0.147      0.114
       7.4      0.847      2.191      3.411      0.150     -2.437
       7.4      0.844      2.202      3.565      0.153      2.959
       7.5      0.841      2.213      3.722      0.156     -2.843
       7.5      0.837      2.223      3.880      0.158      0.824
       7.5      0.834      2.232      4.038      0.161      0.761
       7.6      0.831      2.241      4.195      0.163     -0.725
       7.6      0.828      2.249      4.350      0.166      0.156
       7.6      0.825      2.257      4.502      0.168     -0.494
       7.6      0.822      2.265      4.650      0.170     -0.295
       7.7      0.818      2.272      4.791      0.172      1.095
       7.7      0.815      2.278      4.926      0.174     -2.376
       7.7      0.812      2.283      5.052      0.175      1.671
       7.8      0.809      2.289      5.168      0.177     -0.543
       7.8      0.806      2.293      5.273      0.178      0.683
       7.8      0.803      2.297      5.366      0.179     -0.163
       7.9      0.800      2.300      5.446      0.179     -0.428
       7.9      0.797      2.303      5.513      0.180      1.124
       7.9      0.794      2.305      5.566      0.180      1.434
       7.9      0.792      2.307      5.605      0.180     -1.546
       8.0      0.789      2.308      5.629      0.180     -3.002
       8.0      0.786      2.308      5.638      0.179     -2.632
       8.0      0.783      2.308      5.630      0.178     -2.433
       8.1      0.780      2.307      5.599      0.177      3.091
       8.1      0.777      2.306      5.547      0.176     -2.292
       8.1      0.775      2.304      5.475      0.174      1.609
       8.1      0.772      2.301      5.386      0.172     -2.731
       8.2      0.769      2.298      5.279      0.170     -2.194
       8.2      0.766      2.294      5.159      0.167      1.681
       8.2      0.764      2.290      5.026      0.164     -2.785
       8.3      0.761      2.284      4.883      0.161      3.096
       8.3      0.758      2.279      4.733      0.158      0.676
       8.3      0.756      2.272      4.577      0.155     -0.038
       8.3      0.753      2.265      4.416      0.152     -2.241
       8.4      0.750      2.258      4.254      0.149     -1.472
       8.4      0.748      2.250      4.092      0.145     -1.884
       8.4      0.745      2.241      3.930      0.142     -0.302
       8.5      0.743      2.232      3.770      0.138     -2.196
       8.5      0.740      2.222      3.614      0.135     -1.018
       8.5      0.738      2.211      3.461      0.132     -0.036
       8.5      0.735      2.200      3.314      0.128      1.039
       8.6      0.733      2.189      3.171      0.125     -0.987
       8.6      0.730      2.177      3.035      0.122      2.550
       8.6      0.728      2.164      2.904      0.119     -0.454
       8.7      0.725      2.151      2.779      0.116      1.489
       8.7      0.723      2.137      2.660      0.113     -2.120
       8.7      0.720      2.122      2.547      0.110     -0.680
       8.8      0.718      2.108      2.441      0.108      3.066
       8.8      0.716      2.092      2.340      0.105     -0.368
       8.8      0.713      2.076      2.244      0.103      0.474
       8.8      0.711      2.060      2.154      0.100      0.188
       8.9      0.709      2.043      2.069      0.098      0.495
       8.9      0.706      2.026      1.990      0.096     -1.573
       8.9      0.704      2.008      1.915      0.093      0.767
       9.0      0.702      1.990      1.844      0.091     -1.026
       9.0      0.699      1.972      1.777      0.089     -1.680
       9.0      0.697      1.953      1.715      0.088     -1.155
       9.0      0.695      1.933      1.656      0.086      0.512
       9.1      0.693      1.913      1.600      0.084     -1.580
       9.1      0.691      1.893      1.548      0.082     -1.096
       9.1      0.688      1.873      1.499      0.081      2.899
       9.2      0.686      1.852      1.452      0.079      0.943
       9.2      0.684      1.831      1.408      0.078      1.286
       9.2      0.682      1.809      1.367      0.077      2.824
       9.2      0.680      1.787      1.327      0.075     -2.029
       9.3      0.678      1.765      1.290      0.074      0.295
       9.3      0.675      1.743      1.254      0.073      2.896
       9.3      0.673      1.720      1.221      0.071      0.624
       9.4      0.671      1.697      1.188      0.070     -1.936
       9.4      0.669      1.674      1.158      0.069      2.812
       9.4      0.667      1.651      1.128      0.068     -0.555
       9.4      0.665      1.627      1.100      0.067     -1.060
       9.5      0.663      1.604      1.073      0.066      0.760
       9.5      0.661      1.580      1.048      0.065     -2.173
       9.5      0.659      1.556      1.023      0.064     -1.868
       9.6      0.657      1.532      0.999      0.063     -2.845
       9.6      0.655      1.507      0.975      0.062     -1.646
       9.6      0.653      1.483      0.953      0.061      2.571
       9.7      0.651      1.458      0.931      0.060     -0.513
       9.7      0.649      1.434      0.910      0.059     -2.748
       9.7      0.647      1.409      0.889      0.059      2.485
       9.7      0.645      1.385      0.869      0.058      1.615
       9.8      0.643      1.360      0.850      0.057      0.745
       9.8      0.641      1.335      0.831      0.056      0.718
       9.8      0.640      1.311      0.812      0.055      0.802
       9.9      0.638      1.286      0.794      0.055      2.270
       9.9      0.636      1.261      0.776      0.054     -3.047
       9.9      0.634      1.237      0.759      0.053     -0.229
       9.9      0.632      1.212      0.742      0.052     -0.214
      10.0      0.630      1.188      0.725      0.052      1.148
      10.0      0.628      1.163      0.708      0.051     -2.767
      10.0      0.627      1.139      0.692      0.050     -1.565
      10.1      0.625      1.115      0.676      0.049      3.134
      10.1      0.623      1.091      0.660      0.049     -0.470
      10.1      0.621      1.067      0.645      0.048      1.460
      10.1      0.619      1.043      0.629      0.047      1.632
      10.2      0.618      1.020      0.614      0.046     -1.844
      10.2      0.616      0.996      0.599      0.046      0.983
      10.2      0.614      0.973      0.585      0.045     -1.215
      10.3      0.612      0.950      0.570      0.044      1.533
      10.3      0.611      0.927      0.556      0.044      0.648
      10.3      0.609      0.905      0.542      0.043     -3.104
      10.3      0.607      0.882      0.528      0.042      2.358
      10.4      0.606      0.860      0.515      0.042     -0.148
      10.4      0.604      0.838      0.501      0.041     -1.783
      10.4      0.602      0.817      0.488      0.040     -0.923
      10.5      0.600      0.795      0.475      0.040     -0.522
      10.5      0.599      0.774      0.462      0.039      1.098
      10.5      0.597      0.753      0.450      0.038     -0.406
      10.6      0.596      0.733      0.437      0.038     -0.599
      10.6      0.594      0.712      0.425      0.037      1.160
      10.6      0.592      0.692      0.413      0.037      2.884
      10.6      0.591      0.673      0.401      0.036     -1.500
      10.7      0.589      0.653      0.389      0.035     -2.685
      10.7      0.587      0.634      0.378      0.035      1.243
      10.7      0.586      0.616      0.367      0.034      0.004
      10.8      0.584      0.597      0.356      0.033      3.059
      10.8      0.583      0.579      0.345      0.033      0.362
      10.8      0.581      0.561      0.334      0.032     -2.383
      10.8      0.580      0.544      0.324      0.032     -3.041
      10.9      0.578      0.527      0.313      0.031      2.139
      10.9      0.576      0.510      0.303      0.030      0.259
      10.9      0.575      0.494      0.294      0.030     -1.232
      11.0      0.573      0.477      0.284      0.029      1.647
      11.0      0.572      0.462      0.275      0.029      0.781
      11.0      0.570      0.446      0.265      0.028     -0.634
      11.0      0.569      0.431      0.256      0.028     -1.412
      11.1      0.567      0.416      0.248      0.027      1.195
      11.1      0.566      0.402      0.239      0.027      2.369
      11.1      0.564      0.388      0.231      0.026      2.111
      11.2      0.563      0.374      0.223      0.025     -0.255
      11.2      0.562      0.361      0.215      0.025     -0.536
      11.2      0.560      0.348      0.207      0.024      0.592
      11.2      0.559      0.335      0.199      0.024      2.201
      11.3      0.557      0.323      0.192      0.023     -0.595
      11.3      0.556      0.311      0.185      0.023     -2.187
      11.3      0.554      0.299      0.178      0.022     -2.919
      11.4      0.553      0.287      0.171      0.022     -0.396
      11.4      0.552      0.276      0.164      0.021     -1.216
      11.4      0.550      0.265      0.158      0.021     -1.343
      11.5      0.549      0.255      0.152      0.021      0.953
      11.5      0.547      0.245      0.146      0.020      2.711
      11.5      0.546      0.235      0.140      0.020      0.585
      11.5      0.545      0.225      0.134      0.019      1.379
      11.6      0.543      0.216      0.128      0.019      1.018
      11.6      0.542      0.207      0.123      0.018     -0.612
      11.6      0.541      0.198      0.118      0.018     -0.771
      11.7      0.539      0.190      0.113      0.017      0.998
      11.7      0.538      0.182      0.108      0.017     -1.172
      11.7      0.536      0.174      0.103      0.017     -3.134
      11.7      0.535      0.166      0.099      0.016     -2.935
      11.8      0.534      0.159      0.094      0.016     -3.125
      11.8      0.533      0.152      0.090      0.015     -0.930
      11.8      0.531      0.145      0.086      0.015      1.068
      11.9      0.530      0.138      0.082      0.015      1.208
      11.9      0.529      0.132      0.078      0.014      2.989
      11.9      0.527      0.126      0.075      0.014      1.498
      11.9      0.526      0.120      0.071      0.013     -2.389
      12.0      0.525      0.114      0.068      0.013      2.760
      12.0      0.524      0.109      0.065      0.013     -2.049
      12.0      0.522      0.104      0.062      0.012     -2.259
      12.1      0.521      0.099      0.059      0.012     -0.117
      12.1      0.520      0.094      0.056      0.012     -0.113
      12.1      0.518      0.089      0.053      0.011      1.090
      12.1      0.517      0.085      0.050      0.011     -1.697
      12.2      0.516      0.080      0.048      0.011      0.228
      12.2      0.515      0.076      0.045      0.011     -2.617
      12.2      0.514      0.072      0.043      0.010     -0.875
      12.3      0.512      0.069      0.041      0.010     -1.137
      12.3      0.511      0.065      0.039      0.010      2.729
      12.3      0.510      0.062      0.037      0.009      0.223
      12.4      0.509      0.058      0.035      0.009     -2.269
      12.4      0.508      0.055      0.033      0.009     -0.845
      12.4      0.506      0.052      0.031      0.009     -1.236
      12.4      0.505      0.049      0.029      0.008      2.846
      12.5      0.504      0.047      0.028      0.008     -2.091
      12.5      0.503      0.044      0.026      0.008      2.372
      12.5      0.502      0.042      0.025      0.008      0.992
      12.6      0.501      0.039      0.023      0.007     -2.056
      12.6      0.499      0.037      0.022      0.007      1.830
      12.6      0.498      0.035      0.021      0.007      1.576
      12.6      0.497      0.033      0.019      0.007     -3.054
      12.7      0.496      0.031      0.018      0.006      0.232
      12.7      0.495      0.029      0.017      0.006     -1.148
      12.7      0.494      0.027      0.016      0.006      0.435
      12.8      0.493      0.026      0.015      0.006      0.712
      12.8      0.491      0.024      0.014      0.006      2.150
      12.8      0.490      0.023      0.013      0.005     -1.324
      12.8      0.489      0.021      0.013      0.005     -0.639
      12.9      0.488      0.020      0.012      0.005      1.046
      12.9      0.487      0.019      0.011      0.005      1.484
      12.9      0.486      0.018      0.010      0.005     -0.474
      13.0      0.485      0.016      0.010      0.005      0.655
      13.0      0.484      0.015      0.009      0.004     -3.018
      13.0      0.483      0.014      0.009      0.004     -0.985
      13.0      0.482      0.013      0.008      0.004      2.281
      13.1      0.481      0.013      0.007      0.004      1.452
      13.1      0.479      0.012      0.007      0.004      0.951
      13.1      0.478      0.011      0.006      0.004     -0.637
      13.2      0.477      0.010      0.006      0.004      2.434
      13.2      0.476      0.010      0.006      0.003      2.914
      13.2      0.475      0.009      0.005      0.003     -0.597
      13.3      0.474      0.008      0.005      0.003      1.098
      13.3      0.473      0.008      0.005      0.003      1.702
      13.3      0.472      0.007      0.004      0.003     -1.810
      13.3      0.471      0.007      0.004      0.003      2.294
      13.4      0.470      0.006      0.004      0.003      3.010
      13.4      0.469      0.006      0.003      0.003      2.559
      13.4      0.468      0.005      0.003      0.003     -0.986
      13.5      0.467      0.005      0.003      0.002      1.768
      13.5      0.466      0.005      0.003      0.002      0.039
      13.5      0.465      0.004      0.003      0.002      2.398
      13.5      0.464      0.004      0.002      0.002      0.613
      13.6      0.463      0.004      0.002      0.002      2.818
      13.6      0.462      0.003      0.002      0.002      2.038
      13.6      0.461      0.003      0.002      0.002      0.847
      13.7      0.460      0.003      0.002      0.002      1.364
      13.7      0.459      0.003      0.002      0.002      2.806
      13.7      0.458      0.002      0.001      0.002     -1.400
      13.7      0.457      0.002      0.001      0.002     -0.742
      13.8      0.456      0.002      0.001      0.002      1.990
      13.8      0.455      0.002      0.001      0.001      0.943
      13.8      0.454      0.002      0.001      0.001     -2.612
      13.9      0.453      0.002      0.001      0.001     -0.390
      13.9      0.452      0.001      0.001      0.001      0.203
      13.9      0.451      0.001      0.001      0.001      2.572
      13.9      0.451      0.001      0.001      0.001      2.630
      14.0      0.450      0.001      0.001      0.001      0.677
      14.0      0.449      0.001      0.001      0.001     -0.158
      14.0      0.448      0.001      0.001      0.001     -1.170
      14.1      0.447      0.001      0.001      0.001     -1.599
      14.1      0.446      0.001      0.000      0.001     -1.273
      14.1      0.445      0.001      0.000      0.001      0.142
      14.2      0.444      0.001      0.000      0.001     -0.377
      14.2      0.443      0.001      0.000      0.001     -1.880
      14.2      0.442      0.001      0.000      0.001     -3.131
      14.2      0.441      0.001      0.000      0.001      3.031
      14.3      0.440      0.000      0.000      0.001     -0.043
      14.3      0.440      0.000      0.000      0.001     -1.303
      14.3      0.439      0.000      0.000      0.001     -1.096
      14.4      0.438      0.000      0.000      0.001     -2.192
      14.4      0.437      0.000      0.000      0.001      1.552
      14.4      0.436      0.000      0.000      0.001      1.296
      14.4      0.435      0.000      0.000      0.001     -1.918
      14.5      0.434      0.000      0.000      0.000     -1.199
      14.5      0.433      0.000      0.000      0.000      1.186
      14.5      0.433      0.000      0.000      0.000     -0.042
      14.6      0.432      0.000      0.000      0.000     -0.556
      14.6      0.431      0.000      0.000      0.000      1.110
      14.6      0.430      0.000      0.000      0.000     -1.404
      14.6      0.429      0.000      0.000      0.000     -0.455
      14.7      0.428      0.000      0.000      0.000     -1.799
      14.7      0.427      0.000      0.000      0.000     -0.858
      14.7      0.427      0.000      0.000      0.000     -1.809
      14.8      0.426      0.000      0.000      0.000      1.935
      14.8      0.425      0.000      0.000      0.000      3.082
      14.8      0.424      0.000      0.000      0.000      2.167
      14.8      0.423      0.000      0.000      0.000      0.877
      14.9      0.422      0.000      0.000      0.000      3.076
      14.9      0.422      0.000      0.000      0.000      1.968
      14.9      0.421      0.000      0.000      0.000      3.109
      15.0      0.420      0.000      0.000      0.000     -2.053
      15.0      0.419      0.000      0.000      0.000      2.671
      15.0      0.418      0.000      0.000      0.000      2.751
      15.1      0.417      0.000      0.000      0.000     -1.856
      15.1      0.417      0.000      0.000      0.000      1.017
      15.1      0.416      0.000      0.000      0.000     -0.019
      15.1      0.415      0.000      0.000      0.000      2.716
      15.2      0.414      0.000      0.000      0.000      0.780
      15.2      0.413      0.000      0.000      0.000      0.597
      15.2      0.413      0.000      0.000      0.000      2.649
      15.3      0.412      0.000      0.000      0.000      0.561
      15.3      0.411      0.000      0.000      0.000     -2.828
      15.3      0.410      0.000      0.000      0.000      0.375
      15.3      0.410      0.000      0.000      0.000     -3.095
      15.4      0.409      0.000      0.000      0.000     -1.403
      15.4      0.408      0.000      0.000      0.000     -0.017
      15.4      0.407      0.000      0.000      0.000      0.944
      15.5      0.407      0.000      0.000      0.000      0.301
      15.5      0.406      0.000      0.000      0.000      2.420
      15.5      0.405      0.000      0.000      0.000      3.049
      15.5      0.404      0.000      0.000      0.000     -1.627
      15.6      0.403      0.000      0.000      0.000      0.813
      15.6      0.403      0.000      0.000      0.000     -2.977
      15.6      0.402      0.000      0.000      0.000      0.400
      15.7      0.401      0.000      0.000      0.000     -2.979
      15.7      0.400      0.000      0.000      0.000     -2.275
      15.7      0.400      0.000      0.000      0.000      0.879
      15.7      0.399      0.000      0.000      0.000     -2.398
      15.8      0.398      0.000      0.000      0.000      1.453
      15.8      0.398      0.000      0.000      0.000     -1.611
      15.8      0.397      0.000      0.000      0.000      1.044
      15.9      0.396      0.000      0.000      0.000      3.019
      15.9      0.395      0.000      0.000      0.000     -0.561
      15.9      0.395      0.000      0.000      0.000     -2.233
      15.9      0.394      0.000      0.000      0.000      2.744
      16.0      0.393      0.000      0.000      0.000      2.360
      16.0      0.393      0.000      0.000      0.000      1.406
      16.0      0.392      0.000      0.000      0.000      2.214
      16.1      0.391      0.000      0.000      0.000      2.795
      16.1      0.390      0.000      0.000      0.000     -1.627
      16.1      0.390      0.000      0.000      0.000     -2.455
      16.2      0.389      0.000      0.000      0.000     -1.260
      16.2      0.388      0.000      0.000      0.000      0.923
      16.2      0.388      0.000      0.000      0.000     -0.353
      16.2      0.387      0.000      0.000      0.000     -1.534
      16.3      0.386      0.000      0.000      0.000      0.318
      16.3      0.386      0.000      0.000      0.000      2.860
      16.3      0.385      0.000      0.000      0.000      2.700
      16.4      0.384      0.000      0.000      0.000      1.755
      16.4      0.383      0.000      0.000      0.000     -0.639
      16.4      0.383      0.000      0.000      0.000     -2.674
      16.4      0.382      0.000      0.000      0.000      2.114
      16.5      0.381      0.000      0.000      0.000      0.058
      16.5      0.381      0.000      0.000      0.000     -2.357
      16.5      0.380      0.000      0.000      0.000     -0.992
      16.6      0.379      0.000      0.000      0.000     -2.515
      16.6      0.379      0.000      0.000      0.000     -1.284
      16.6      0.378      0.000      0.000      0.000      1.327
      16.6      0.377      0.000      0.000      0.000      1.418
      16.7      0.377      0.000      0.000      0.000      0.537
      16.7      0.376      0.000      0.000      0.000      1.486
      16.7      0.375      0.000      0.000      0.000     -1.413
      16.8      0.375      0.000      0.000      0.000      0.846
      16.8      0.374      0.000      0.000      0.000     -1.395
      16.8      0.374      0.000      0.000      0.000      1.497
      16.8      0.373      0.000      0.000      0.000     -3.031
      16.9      0.372      0.000      0.000      0.000     -1.862
      16.9      0.372      0.000      0.000      0.000     -2.783
      16.9      0.371      0.000      0.000      0.000     -1.188
      17.0      0.370      0.000      0.000      0.000     -0.235
      17.0      0.370      0.000      0.000      0.000      1.272
      17.0      0.369      0.000      0.000      0.000     -2.556
      17.1      0.368      0.000      0.000      0.000      0.037
      17.1      0.368      0.000      0.000      0.000     -1.467
      17.1      0.367      0.000      0.000      0.000     -1.708
      17.1      0.367      0.000      0.000      0.000     -0.668
      17.2      0.366      0.000      0.000      0.000      2.534
      17.2      0.365      0.000      0.000      0.000     -0.736
      17.2      0.365      0.000      0.000      0.000     -1.015
      17.3      0.364      0.000      0.000      0.000      0.191
      17.3      0.363      0.000      0.000      0.000      0.337
      17.3      0.363      0.000      0.000      0.000      2.271
      17.3      0.362      0.000      0.000      0.000      1.754
      17.4      0.362      0.000      0.000      0.000     -2.638
      17.4      0.361      0.000      0.000      0.000      1.770
      17.4      0.360      0.000      0.000      0.000     -2.747
      17.5      0.360      0.000      0.000      0.000      2.923
      17.5      0.359      0.000      0.000      0.000      1.945
      17.5      0.359      0.000      0.000      0.000      1.614
      17.5      0.358      0.000      0.000      0.000      0.446
      17.6      0.357      0.000      0.000      0.000     -0.831
      17.6      0.357      0.000      0.000      0.000     -2.294
      17.6      0.356      0.000      0.000      0.000     -1.644
      17.7      0.356      0.000      0.000      0.000      0.528
      17.7      0.355      0.000      0.000      0.000     -0.203
      17.7      0.355      0.000      0.000      0.000      2.446
      17.7      0.354      0.000      0.000      0.000     -0.632
      17.8      0.353      0.000      0.000      0.000     -2.740
      17.8      0.353      0.000      0.000      0.000     -0.444
      17.8      0.352      0.000      0.000      0.000      2.683
      17.9      0.352      0.000      0.000      0.000     -2.267
      17.9      0.351      0.000      0.000      0.000     -0.443
      17.9      0.351      0.000      0.000      0.000     -2.200
      18.0      0.350      0.000      0.000      0.000      0.607
      18.0      0.349      0.000      0.000      0.000      1.798
      18.0      0.349      0.000      0.000      0.000     -2.708
      18.0      0.348      0.000      0.000      0.000      2.162
      18.1      0.348      0.000      0.000      0.000      0.733
      18.1      0.347      0.000      0.000      0.000      0.632
      18.1      0.347      0.000      0.000      0.000     -0.267
      18.2      0.346      0.000      0.000      0.000      1.989
      18.2      0.346      0.000      0.000      0.000     -0.756
      18.2      0.345      0.000      0.000      0.000      3.032
      18.2      0.344      0.000      0.000      0.000     -2.136
      18.3      0.344      0.000      0.000      0.000      0.509
      18.3      0.343      0.000      0.000      0.000     -1.745
      18.3      0.343      0.000      0.000      0.000      1.823
      18.4      0.342      0.000      0.000      0.000     -0.011
      18.4      0.342      0.000      0.000      0.000      3.022
      18.4      0.341      0.000      0.000      0.000      1.177
      18.4      0.341      0.000      0.000      0.000      1.110
      18.5      0.340      0.000      0.000      0.000     -2.093
      18.5      0.340      0.000      0.000      0.000     -0.201
      18.5      0.339      0.000      0.000      0.000     -1.181
      18.6      0.338      0.000      0.000      0.000      2.207
      18.6      0.338      0.000      0.000      0.000      0.483
      18.6      0.337      0.000      0.000      0.000     -1.909
      18.6      0.337      0.000      0.000      0.000      2.973
      18.7      0.336      0.000      0.000      0.000     -2.083
      18.7      0.336      0.000      0.000      0.000     -1.824
      18.7      0.335      0.000      0.000      0.000     -2.605
      18.8      0.335      0.000      0.000      0.000     -1.134
      18.8      0.334      0.000      0.000      0.000      2.864
      18.8      0.334      0.000      0.000      0.000      1.642
      18.9      0.333      0.000      0.000      0.000      0.081
      18.9      0.333      0.000      0.000      0.000     -1.105
      18.9      0.332      0.000      0.000      0.000     -0.110
      18.9      0.332      0.000      0.000      0.000     -0.883
      19.0      0.331      0.000      0.000      0.000      1.802
      19.0      0.331      0.000      0.000      0.000     -0.089
      19.0      0.330      0.000      0.000      0.000     -0.137
      19.1      0.330      0.000      0.000      0.000      0.844
      19.1      0.329      0.000      0.000      0.000     -2.760
      19.1      0.329      0.000      0.000      0.000      1.346
      19.1      0.328      0.000      0.000      0.000      0.666
      19.2      0.328      0.000      0.000      0.000      2.660
      19.2      0.327      0.000      0.000      0.000      2.151
      19.2      0.327      0.000      0.000      0.000     -0.468
      19.3      0.326      0.000      0.000      0.000     -1.274
      19.3      0.326      0.000      0.000      0.000     -0.677
      19.3      0.325      0.000      0.000      0.000      1.605
      19.3      0.325      0.000      0.000      0.000      2.413
      19.4      0.324      0.000      0.000      0.000      2.218
      19.4      0.324      0.000      0.000      0.000     -0.915
      19.4      0.323      0.000      0.000      0.000      1.314
      19.5      0.323      0.000      0.000      0.000     -1.141
      19.5      0.322      0.000      0.000      0.000     -1.751
      19.5      0.322      0.000      0.000      0.000      0.418
      19.5      0.321      0.000      0.000      0.000     -2.315
      19.6      0.321      0.000      0.000      0.000      2.162
      19.6      0.320      0.000      0.000      0.000     -0.931
      19.6      0.320      0.000      0.000      0.000      1.803
      19.7      0.320      0.000      0.000      0.000     -0.469
      19.7      0.319      0.000      0.000      0.000      1.417
      19.7      0.319      0.000      0.000      0.000      0.248
      19.8      0.318      0.000      0.000      0.000     -0.805
      19.8      0.318      0.000      0.000      0.000     -1.266
      19.8      0.317      0.000      0.000      0.000     -3.115
      19.8      0.317      0.000      0.000      0.000      0.997
      19.9      0.316      0.000      0.000      0.000     -1.905
      19.9      0.316      0.000      0.000      0.000     -2.325
      19.9      0.315      0.000      0.000      0.000     -2.947
      20.0      0.315      0.000      0.000      0.000      1.240
      20.0      0.314      0.000      0.000      0.000      1.125
      20.0      0.314      0.000      0.000      0.000     -2.996
      20.0      0.313      0.000      0.000      0.000      2.682
      20.1      0.313      0.000      0.000      0.000     -0.026
      20.1      0.313      0.000      0.000      0.000     -1.969
      20.1      0.312      0.000      0.000      0.000      1.301
      20.2      0.312      0.000      0.000      0.000      0.052
      20.2      0.311      0.000      0.000      0.000     -2.530
      20.2      0.311      0.000      0.000      0.000      0.706
      20.2      0.310      0.000      0.000      0.000      2.745
      20.3      0.310      0.000      0.000      0.000      1.297
      20.3      0.309      0.000      0.000      0.000      0.725
      20.3      0.309      0.000      0.000      0.000     -0.657
      20.4      0.309      0.000      0.000      0.000      0.348
      20.4      0.308      0.000      0.000      0.000     -3.071
      20.4      0.308      0.000      0.000      0.000     -2.983
      20.4      0.307      0.000      0.000      0.000      1.709
      20.5      0.307      0.000      0.000      0.000      2.307
      20.5      0.306      0.000      0.000      0.000      2.973
      20.5      0.306      0.000      0.000      0.000      1.800
      20.6      0.306      0.000      0.000      0.000      0.215
      20.6      0.305      0.000      0.000      0.000     -0.104
      20.6      0.305      0.000      0.000      0.000     -1.311
      20.7      0.304      0.000      0.000      0.000      1.257
      20.7      0.304      0.000      0.000      0.000     -2.625
      20.7      0.303      0.000      0.000      0.000     -1.287
      20.7      0.303      0.000      0.000      0.000      0.139
      20.8      0.303      0.000      0.000      0.000      2.574
      20.8      0.302      0.000      0.000      0.000     -2.851
      20.8      0.302      0.000      0.000      0.000      1.434
      20.9      0.301      0.000      0.000      0.000      2.751
      20.9      0.301      0.000      0.000      0.000     -0.310
      20.9      0.300      0.000      0.000      0.000     -1.483
      20.9      0.300      0.000      0.000      0.000      2.751
      21.0      0.300      0.000      0.000      0.000      0.418
      21.0      0.299      0.000      0.000      0.000     -1.541
      21.0      0.299      0.000      0.000      0.000     -0.680
      21.1      0.298      0.000      0.000      0.000     -2.514
      21.1      0.298      0.000      0.000      0.000      2.799
      21.1      0.298      0.000      0.000      0.000     -3.041
      21.1      0.297      0.000      0.000      0.000      2.715
      21.2      0.297      0.000      0.000      0.000     -0.290
      21.2      0.296      0.000      0.000      0.000      0.739
      21.2      0.296      0.000      0.000      0.000      2.036
      21.3      0.296      0.000      0.000      0.000      2.880
      21.3      0.295      0.000      0.000      0.000     -1.558
      21.3      0.295      0.000      0.000      0.000      2.544
      21.3      0.294      0.000      0.000      0.000      2.961
      21.4      0.294      0.000      0.000      0.000     -1.142
      21.4      0.294      0.000      0.000      0.000     -1.401
      21.4      0.293      0.000      0.000      0.000      3.063
      21.5      0.293      0.000      0.000      0.000      2.140
      21.5      0.292      0.000      0.000      0.000      0.606
      21.5      0.292      0.000      0.000      0.000     -2.668
      21.6      0.292      0.000      0.000      0.000      2.011
      21.6      0.291      0.000      0.000      0.000     -1.392
      21.6      0.291      0.000      0.000      0.000      0.747
      21.6      0.290      0.000      0.000      0.000      0.456
      21.7      0.290      0.000      0.000      0.000      2.632
      21.7      0.290      0.000      0.000      0.000     -0.870
      21.7      0.289      0.000      0.000      0.000      1.753
      21.8      0.289      0.000      0.000      0.000     -1.775
      21.8      0.288      0.000      0.000      0.000      0.303
      21.8      0.288      0.000      0.000      0.000      2.902
      21.8      0.288      0.000      0.000      0.000      2.936
      21.9      0.287      0.000      0.000      0.000     -1.136
      21.9      0.287      0.000      0.000      0.000     -1.014
      21.9      0.287      0.000      0.000      0.000     -3.037
      22.0      0.286      0.000      0.000      0.000     -0.714
      22.0      0.286      0.000      0.000      0.000      1.430
      22.0      0.285      0.000      0.000      0.000      2.312
      22.0      0.285      0.000      0.000      0.000      2.575
      22.1      0.285      0.000      0.000      0.000     -2.944
      22.1      0.284      0.000      0.000      0.000      0.104
      22.1      0.284      0.000      0.000      0.000     -1.653
      22.2      0.284      0.000      0.000      0.000      2.332
      22.2      0.283      0.000      0.000      0.000     -2.402
      22.2      0.283      0.000      0.000      0.000      2.047
      22.2      0.282      0.000      0.000      0.000     -2.078
      22.3      0.282      0.000      0.000      0.000      1.879
      22.3      0.282      0.000      0.000      0.000     -1.651
      22.3      0.281      0.000      0.000      0.000      0.104
      22.4      0.281      0.000      0.000      0.000      1.070
      22.4      0.281      0.000      0.000      0.000     -0.540
      22.4      0.280      0.000      0.000      0.000      0.155
      22.5      0.280      0.000      0.000      0.000      1.873
      22.5      0.279      0.000      0.000      0.000      1.702
      22.5      0.279      0.000      0.000      0.000     -2.218
      22.5      0.279      0.000      0.000      0.000      0.723
      22.6      0.278      0.000      0.000      0.000     -0.118
      22.6      0.278      0.000      0.000      0.000     -0.678
      22.6      0.278      0.000      0.000      0.000      1.081
      22.7      0.277      0.000      0.000      0.000      1.084
      22.7      0.277      0.000      0.000      0.000     -3.047
      22.7      0.277      0.000      0.000      0.000      2.267
      22.7      0.276      0.000      0.000      0.000     -0.085
      22.8      0.276      0.000      0.000      0.000     -1.422
      22.8      0.276      0.000      0.000      0.000      2.914
      22.8      0.275      0.000      0.000      0.000     -2.483
      22.9      0.275      0.000      0.000      0.000     -0.333
      22.9      0.275      0.000      0.000      0.000     -0.472
      22.9      0.274      0.000      0.000      0.000     -2.655
      22.9      0.274      0.000      0.000      0.000     -2.743
      23.0      0.273      0.000      0.000      0.000      1.047
      23.0      0.273      0.000      0.000      0.000     -0.021
      23.0      0.273      0.000      0.000      0.000      0.733
      23.1      0.272      0.000      0.000      0.000     -1.005
      23.1      0.272      0.000      0.000      0.000      1.128
      23.1      0.272      0.000      0.000      0.000     -0.917
      23.1      0.271      0.000      0.000      0.000     -2.611
      23.2      0.271      0.000      0.000      0.000      0.823
      23.2      0.271      0.000      0.000      0.000     -1.386
      23.2      0.270      0.000      0.000      0.000     -0.212
      23.3      0.270      0.000      0.000      0.000     -2.998
      23.3      0.270      0.000      0.000      0.000      2.901
      23.3      0.269      0.000      0.000      0.000      2.751
      23.4      0.269      0.000      0.000      0.000     -1.407
      23.4      0.269      0.000      0.000      0.000     -2.955
      23.4      0.268      0.000      0.000      0.000     -1.512
      23.4      0.268      0.000      0.000      0.000     -1.826
      23.5      0.268      0.000      0.000      0.000      0.691
      23.5      0.267      0.000      0.000      0.000      0.963
      23.5      0.267      0.000      0.000      0.000     -1.284
      23.6      0.267      0.000      0.000      0.000     -2.955
      23.6      0.266      0.000      0.000      0.000     -0.560
      23.6      0.266      0.000      0.000      0.000     -1.134
      23.6      0.266      0.000      0.000      0.000      0.187
      23.7      0.265      0.000      0.000      0.000     -1.191
      23.7      0.265      0.000      0.000      0.000      0.465
      23.7      0.265      0.000      0.000      0.000      2.820
      23.8      0.264      0.000      0.000      0.000      2.406
      23.8      0.264      0.000      0.000      0.000      1.521
      23.8      0.264      0.000      0.000      0.000     -2.089
      23.8      0.263      0.000      0.000      0.000     -0.514
      23.9      0.263      0.000      0.000      0.000      2.987
      23.9      0.263      0.000      0.000      0.000     -1.849
      23.9      0.263      0.000      0.000      0.000      2.012
      24.0      0.262      0.000      0.000      0.000      0.168
      24.0      0.262      0.000      0.000      0.000      2.255
      24.0      0.262      0.000      0.000      0.000      1.281
      24.0      0.261      0.000      0.000      0.000      0.342
      24.1      0.261      0.000      0.000      0.000      0.736
      24.1      0.261      0.000      0.000      0.000      1.713
      24.1      0.260      0.000      0.000      0.000     -1.796
      24.2      0.260      0.000      0.000      0.000      2.196
      24.2      0.260      0.000      0.000      0.000      0.087
      24.2      0.259      0.000      0.000      0.000      2.874
      24.3      0.259      0.000      0.000      0.000     -0.793
      24.3      0.259      0.000      0.000      0.000     -1.796
      24.3      0.258      0.000      0.000      0.000      2.700
      24.3      0.258      0.000      0.000      0.000     -2.782
      24.4      0.258      0.000      0.000      0.000     -0.626
      24.4      0.258      0.000      0.000      0.000     -2.832
      24.4      0.257      0.000      0.000      0.000     -3.127
      24.5      0.257      0.000      0.000      0.000     -2.266
      24.5      0.257      0.000      0.000      0.000     -2.171
      24.5      0.256      0.000      0.000      0.000     -2.614
      24.5      0.256      0.000      0.000      0.000     -2.447
      24.6      0.256      0.000      0.000      0.000      2.300
      24.6      0.255      0.000      0.000      0.000      1.581
      24.6      0.255      0.000      0.000      0.000     -2.103
      24.7      0.255      0.000      0.000      0.000      0.835
      24.7      0.255      0.000      0.000      0.000      2.179
      24.7      0.254      0.000      0.000      0.000      0.817
      24.7      0.254      0.000      0.000      0.000      1.137
      24.8      0.254      0.000      0.000      0.000      1.886
      24.8      0.253      0.000      0.000      0.000      1.279
      24.8      0.253      0.000      0.000      0.000     -0.141
      24.9      0.253      0.000      0.000      0.000     -0.625
      24.9      0.252      0.000      0.000      0.000     -1.252
      24.9      0.252      0.000      0.000      0.000      2.397
      24.9      0.252      0.000      0.000      0.000      2.699
      25.0      0.252      0.000      0.000      0.000     -3.067
      25.0      0.251      0.000      0.000      0.000      1.849
      25.0      0.251      0.000      0.000      0.000      1.464
      25.1      0.251      0.000      0.000      0.000     -0.399
      25.1      0.250      0.000      0.000      0.000     -2.279
      25.1      0.250      0.000      0.000      0.000      3.070
      25.2      0.250      0.000      0.000      0.000      2.574
      25.2      0.250      0.000      0.000      0.000     -1.786
      25.2      0.249      0.000      0.000      0.000     -2.459
      25.2      0.249      0.000      0.000      0.000     -0.384
      25.3      0.249      0.000      0.000      0.000      0.580
      25.3      0.248      0.000      0.000      0.000      1.169
      25.3      0.248      0.000      0.000      0.000     -1.354
      25.4      0.248      0.000      0.000      0.000      1.400
      25.4      0.248      0.000      0.000      0.000      0.563
      25.4      0.247      0.000      0.000      0.000     -1.271
      25.4      0.247      0.000      0.000      0.000     -1.958
      25.5      0.247      0.000      0.000      0.000     -2.205
      25.5      0.246      0.000      0.000      0.000      2.116
      25.5      0.246      0.000      0.000      0.000     -2.143
      25.6      0.246      0.000      0.000      0.000     -1.564
      25.6      0.246      0.000      0.000      0.000      0.980
      25.6      0.245      0.000      0.000      0.000     -1.088
      25.6      0.245      0.000      0.000      0.000     -0.820
      25.7      0.245      0.000      0.000      0.000     -0.388
      25.7      0.244      0.000      0.000      0.000     -2.800
      25.7      0.244      0.000      0.000      0.000     -3.115
      25.8      0.244      0.000      0.000      0.000     -0.227
      25.8      0.244      0.000      0.000      0.000      0.269
      25.8      0.243      0.000      0.000      0.000     -1.420
      25.8      0.243      0.000      0.000      0.000      0.958
      25.9      0.243      0.000      0.000      0.000      2.346
      25.9      0.243      0.000      0.000      0.000     -0.464
      25.9      0.242      0.000      0.000      0.000      1.679
      26.0      0.242      0.000      0.000      0.000     -1.211
      26.0      0.242      0.000      0.000      0.000      1.955
      26.0      0.241      0.000      0.000      0.000      3.054
      26.1      0.241      0.000      0.000      0.000      1.431
      26.1      0.241      0.000      0.000      0.000     -1.716
      26.1      0.241      0.000      0.000      0.000     -0.076
      26.1      0.240      0.000      0.000      0.000     -2.288
      26.2      0.240      0.000      0.000      0.000     -1.390
      26.2      0.240      0.000      0.000      0.000      2.822
      26.2      0.240      0.000      0.000      0.000     -2.742
      26.3      0.239      0.000      0.000      0.000      0.465
      26.3      0.239      0.000      0.000      0.000     -1.317
      26.3      0.239      0.000      0.000      0.000     -0.196
      26.3      0.239      0.000      0.000      0.000     -1.623
      26.4      0.238      0.000      0.000      0.000      0.794
      26.4      0.238      0.000      0.000      0.000      3.000
      26.4      0.238      0.000      0.000      0.000     -2.732
      26.5      0.237      0.000      0.000      0.000      2.591
      26.5      0.237      0.000      0.000      0.000      2.770
      26.5      0.237      0.000      0.000      0.000      2.759
      26.5      0.237      0.000      0.000      0.000      1.947
      26.6      0.236      0.000      0.000      0.000      1.577
      26.6      0.236      0.000      0.000      0.000     -1.142
      26.6      0.236      0.000      0.000      0.000      1.844
      26.7      0.236      0.000      0.000      0.000     -1.321
      26.7      0.235      0.000      0.000      0.000     -2.027
      26.7      0.235      0.000      0.000      0.000     -0.263
      26.7      0.235      0.000      0.000      0.000     -2.747
      26.8      0.235      0.000      0.000      0.000      0.454
      26.8      0.234      0.000      0.000      0.000      0.525
      26.8      0.234      0.000      0.000      0.000      2.531
      26.9      0.234      0.000      0.000      0.000     -0.194
      26.9      0.234      0.000      0.000      0.000      2.809
      26.9      0.233      0.000      0.000      0.000     -1.673
      27.0      0.233      0.000      0.000      0.000      2.880
      27.0      0.233      0.000      0.000      0.000     -1.300
      27.0      0.233      0.000      0.000      0.000     -0.165
      27.0      0.232      0.000      0.000      0.000      1.549
      27.1      0.232      0.000      0.000      0.000      2.373
      27.1      0.232      0.000      0.000      0.000      2.846
      27.1      0.232      0.000      0.000      0.000      2.311
      27.2      0.231      0.000      0.000      0.000      0.388
      27.2      0.231      0.000      0.000      0.000     -2.626
      27.2      0.231      0.000      0.000      0.000     -0.237
      27.2      0.231      0.000      0.000      0.000      1.608
      27.3      0.230      0.000      0.000      0.000     -1.255
      27.3      0.230      0.000      0.000      0.000      1.301
      27.3      0.230      0.000      0.000      0.000      2.632
      27.4      0.230      0.000      0.000      0.000      2.078
      27.4      0.229      0.000      0.000      0.000     -0.481
      27.4      0.229      0.000      0.000      0.000     -1.567
      27.4      0.229      0.000      0.000      0.000      1.162
      27.5      0.229      0.000      0.000      0.000      2.755
      27.5      0.228      0.000      0.000      0.000     -2.538
      27.5      0.228      0.000      0.000      0.000      0.670
      27.6      0.228      0.000      0.000      0.000     -0.558
      27.6      0.228      0.000      0.000      0.000      0.807
      27.6      0.227      0.000      0.000      0.000      1.022
      27.6      0.227      0.000      0.000      0.000     -1.483
      27.7      0.227      0.000      0.000      0.000      0.408
      27.7      0.227      0.000      0.000      0.000     -1.899
      27.7      0.227      0.000      0.000      0.000      0.876
      27.8      0.226      0.000      0.000      0.000      2.851
      27.8      0.226      0.000      0.000      0.000      0.717
      27.8      0.226      0.000      0.000      0.000      1.632
      27.9      0.226      0.000      0.000      0.000      0.825
      27.9      0.225      0.000      0.000      0.000      0.148
      27.9      0.225      0.000      0.000      0.000      0.174
      27.9      0.225      0.000      0.000      0.000     -0.809
      28.0      0.225      0.000      0.000      0.000     -2.647
      28.0      0.224      0.000      0.000      0.000     -1.113
      28.0      0.224      0.000      0.000      0.000      1.544
      28.1      0.224      0.000      0.000      0.000      1.542
      28.1      0.224      0.000      0.000      0.000     -1.632
      28.1      0.223      0.000      0.000      0.000      2.382
      28.1      0.223      0.000      0.000      0.000     -1.402
      28.2      0.223      0.000      0.000      0.000      0.538
      28.2      0.223      0.000      0.000      0.000     -1.140
      28.2      0.223      0.000      0.000      0.000     -2.228
      28.3      0.222      0.000      0.000      0.000     -2.649
      28.3      0.222      0.000      0.000      0.000     -2.707
      28.3      0.222      0.000      0.000      0.000     -2.296
      28.3      0.222      0.000      0.000      0.000     -2.498
      28.4      0.221      0.000      0.000      0.000     -0.774
      28.4      0.221      0.000      0.000      0.000      0.073
      28.4      0.221      0.000      0.000      0.000     -1.525
      28.5      0.221      0.000      0.000      0.000      3.109
      28.5      0.221      0.000      0.000      0.000     -2.621
      28.5      0.220      0.000      0.000      0.000      1.543
      28.5      0.220      0.000      0.000      0.000      3.108
      28.6      0.220      0.000      0.000      0.000      3.041
      28.6      0.220      0.000      0.000      0.000      2.886
      28.6      0.219      0.000      0.000      0.000     -1.620
      28.7      0.219      0.000      0.000      0.000     -2.190
      28.7      0.219      0.000      0.000      0.000     -0.017
      28.7      0.219      0.000      0.000      0.000      1.239
      28.8      0.219      0.000      0.000      0.000      0.060
      28.8      0.218      0.000      0.000      0.000      2.903
      28.8      0.218      0.000      0.000      0.000     -2.786
      28.8      0.218      0.000      0.000      0.000      0.349
      28.9      0.218      0.000      0.000      0.000      1.863
      28.9      0.217      0.000      0.000      0.000     -2.496
      28.9      0.217      0.000      0.000      0.000      2.301
      29.0      0.217      0.000      0.000      0.000      1.399
      29.0      0.217      0.000      0.000      0.000      0.846
      29.0      0.217      0.000      0.000      0.000     -1.947
      29.0      0.216      0.000      0.000      0.000      2.777
      29.1      0.216      0.000      0.000      0.000     -2.805
      29.1      0.216      0.000      0.000      0.000     -1.574
      29.1      0.216      0.000      0.000      0.000      1.084
      29.2      0.215      0.000      0.000      0.000     -2.748
      29.2      0.215      0.000      0.000      0.000     -0.993
      29.2      0.215      0.000      0.000      0.000     -0.800
      29.2      0.215      0.000      0.000      0.000      0.125
      29.3      0.215      0.000      0.000      0.000     -1.102
      29.3      0.214      0.000      0.000      0.000      1.758
      29.3      0.214      0.000      0.000      0.000     -0.095
      29.4      0.214      0.000      0.000      0.000      0.748
      29.4      0.214      0.000      0.000      0.000      0.508
      29.4      0.214      0.000      0.000      0.000      1.661
      29.4      0.213      0.000      0.000      0.000     -3.004
      29.5      0.213      0.000      0.000      0.000     -1.380
      29.5      0.213      0.000      0.000      0.000      0.302
      29.5      0.213      0.000      0.000      0.000      1.296
      29.6      0.213      0.000      0.000      0.000      0.470
      29.6      0.212      0.000      0.000      0.000      1.644
      29.6      0.212      0.000      0.000      0.000      2.248
      29.7      0.212      0.000      0.000      0.000      3.113
      29.7      0.212      0.000      0.000      0.000      0.732
      29.7      0.211      0.000      0.000      0.000     -1.787
      29.7      0.211      0.000      0.000      0.000      2.130
      29.8      0.211      0.000      0.000      0.000      1.776
      29.8      0.211      0.000      0.000      0.000      1.779
      29.8      0.211      0.000      0.000      0.000      2.943
      29.9      0.210      0.000      0.000      0.000     -1.203
      29.9      0.210      0.000      0.000      0.000      1.450
      29.9      0.210      0.000      0.000      0.000     -1.603
      29.9      0.210      0.000      0.000      0.000      0.212
      30.0      0.210      0.000      0.000      0.000     -2.175
      30.0      0.209      0.000      0.000      0.000     -0.669

Time History

      Time  Elevation 
      0.00      0.735
      0.10      0.739
      0.20      0.722
      0.30      0.690
      0.40      0.651
      0.50      0.617
      0.60      0.596
      0.70      0.594
      0.80      0.610
      0.90      0.641
      1.00      0.677
      1.10      0.708
      1.20      0.723
      1.30      0.714
      1.40      0.678
      1.50      0.613
      1.60      0.524
      1.70      0.416
      1.80      0.294
      1.90      0.166
      2.00      0.033
      2.10     -0.102
      2.20     -0.240
      2.30     -0.382
      2.40     -0.531
      2.50     -0.688
      2.60     -0.850
      2.70     -1.014
      2.80     -1.172
      2.90     -1.316
      3.00     -1.436
      3.10     -1.523
      3.20     -1.573
      3.30     -1.583
      3.40     -1.555
      3.50     -1.493
      3.60     -1.406
      3.70     -1.302
      3.80     -1.188
      3.90     -1.074
      4.00     -0.963
      4.10     -0.858
      4.20     -0.761
      4.30     -0.671
      4.40     -0.588
      4.50     -0.510
      4.60     -0.438
      4.70     -0.370
      4.80     -0.308
      4.90     -0.250
      5.00     -0.197
      5.10     -0.149
      5.20     -0.107
      5.30     -0.071
      5.40     -0.042
      5.50     -0.021
      5.60     -0.008
      5.70     -0.002
      5.80     -0.002
      5.90     -0.006
      6.00     -0.011
      6.10     -0.012
      6.20     -0.006
      6.30      0.009
      6.40      0.035
      6.50      0.072
      6.60      0.122
      6.70      0.183
      6.80      0.257
      6.90      0.342
      7.00      0.440
      7.10      0.550
      7.20      0.670
      7.30      0.797
      7.40      0.925
      7.50      1.049
      7.60      1.160
      7.70      1.251
      7.80      1.315
      7.90      1.348
      8.00      1.347
      8.10      1.314
      8.20      1.253
      8.30      1.170
      8.40      1.070
      8.50      0.962
      8.60      0.852
      8.70      0.746
      8.80      0.649
      8.90      0.564
      9.00      0.493
      9.10      0.437
      9.20      0.394
      9.30      0.363
      9.40      0.340
      9.50      0.323
      9.60      0.308
      9.70      0.291
      9.80      0.269
      9.90      0.239
     10.00      0.199
     10.10      0.146
     10.20      0.078
     10.30     -0.008
     10.40     -0.113
     10.50     -0.239
     10.60     -0.384
     10.70     -0.547
     10.80     -0.722
     10.90     -0.902
     11.00     -1.079
     11.10     -1.246
     11.20     -1.394
     11.30     -1.516
     11.40     -1.608
     11.50     -1.667
     11.60     -1.691
     11.70     -1.683
     11.80     -1.643
     11.90     -1.577
     12.00     -1.490
     12.10     -1.386
     12.20     -1.272
     12.30     -1.154
     12.40     -1.036
     12.50     -0.921
     12.60     -0.811
     12.70     -0.702
     12.80     -0.592
     12.90     -0.478
     13.00     -0.354
     13.10     -0.220
     13.20     -0.077
     13.30      0.071
     13.40      0.217
     13.50      0.353
     13.60      0.472
     13.70      0.571
     13.80      0.646
     13.90      0.701
     14.00      0.741
     14.10      0.773
     14.20      0.806
     14.30      0.844
     14.40      0.893
     14.50      0.953
     14.60      1.022
     14.70      1.098
     14.80      1.175
     14.90      1.248
     15.00      1.312
     15.10      1.362
     15.20      1.393
     15.30      1.400
     15.40      1.379
     15.50      1.327
     15.60      1.244
     15.70      1.133
     15.80      1.000
     15.90      0.852
     16.00      0.699
     16.10      0.550
     16.20      0.413
     16.30      0.292
     16.40      0.188
     16.50      0.098
     16.60      0.020
     16.70     -0.053
     16.80     -0.123
     16.90     -0.190
     17.00     -0.253
     17.10     -0.310
     17.20     -0.355
     17.30     -0.386
     17.40     -0.401
     17.50     -0.404
     17.60     -0.397
     17.70     -0.388
     17.80     -0.382
     17.90     -0.385
     18.00     -0.402
     18.10     -0.431
     18.20     -0.473
     18.30     -0.523
     18.40     -0.575
     18.50     -0.627
     18.60     -0.674
     18.70     -0.713
     18.80     -0.743
     18.90     -0.764
     19.00     -0.777
     19.10     -0.784
     19.20     -0.784
     19.30     -0.781
     19.40     -0.774
     19.50     -0.764
     19.60     -0.751
     19.70     -0.735
     19.80     -0.716
     19.90     -0.694
     20.00     -0.670
     20.10     -0.645
     20.20     -0.619
     20.30     -0.593
     20.40     -0.566
     20.50     -0.537
     20.60     -0.504
     20.70     -0.466
     20.80     -0.422
     20.90     -0.371
     21.00     -0.315
     21.10     -0.258
     21.20     -0.204
     21.30     -0.160
     21.40     -0.127
     21.50     -0.107
     21.60     -0.097
     21.70     -0.088
     21.80     -0.073
     21.90     -0.043
     22.00      0.012
     22.10      0.094
     22.20      0.203
     22.30      0.332
     22.40      0.473
     22.50      0.616
     22.60      0.752
     22.70      0.875
     22.80      0.985
     22.90      1.082
     23.00      1.170
     23.10      1.252
     23.20      1.326
     23.30      1.389
     23.40      1.434
     23.50      1.453
     23.60      1.440
     23.70      1.391
     23.80      1.308
     23.90      1.198
     24.00      1.072
     24.10      0.943
     24.20      0.823
     24.30      0.719
     24.40      0.635
     24.50      0.569
     24.60      0.515
     24.70      0.467
     24.80      0.419
     24.90      0.365
     25.00      0.303
     25.10      0.232
     25.20      0.154
     25.30      0.067
     25.40     -0.028
     25.50     -0.129
     25.60     -0.237
     25.70     -0.346
     25.80     -0.454
     25.90     -0.551
     26.00     -0.631
     26.10     -0.688
     26.20     -0.721
     26.30     -0.730
     26.40     -0.726
     26.50     -0.717
     26.60     -0.715
     26.70     -0.731
     26.80     -0.768
     26.90     -0.825
     27.00     -0.896
     27.10     -0.968
     27.20     -1.030
     27.30     -1.071
     27.40     -1.086
     27.50     -1.072
     27.60     -1.032
     27.70     -0.972
     27.80     -0.897
     27.90     -0.811
     28.00     -0.717
     28.10     -0.613
     28.20     -0.500
     28.30     -0.380
     28.40     -0.256
     28.50     -0.136
     28.60     -0.029
     28.70      0.057
     28.80      0.115
     28.90      0.142
     29.00      0.141
     29.10      0.118
     29.20      0.082
     29.30      0.042
     29.40      0.007
     29.50     -0.020
     29.60     -0.036
     29.70     -0.043
     29.80     -0.041
     29.90     -0.029
     30.00     -0.006
     30.10      0.033
     30.20      0.091
     30.30      0.169
     30.40      0.263
     30.50      0.366
     30.60      0.465
     30.70      0.547
     30.80      0.599
     30.90      0.611
     31.00      0.582
     31.10      0.517
     31.20      0.429
     31.30      0.332
     31.40      0.244
     31.50      0.178
     31.60      0.139
     31.70      0.131
     31.80      0.147
     31.90      0.180
     32.00      0.218
     32.10      0.253
     32.20      0.279
     32.30      0.291
     32.40      0.291
     32.50      0.278
     32.60      0.256
     32.70      0.226
     32.80      0.191
     32.90      0.149
     33.00      0.103
     33.10      0.054
     33.20      0.003
     33.30     -0.046
     33.40     -0.089
     33.50     -0.123
     33.60     -0.146
     33.70     -0.156
     33.80     -0.153
     33.90     -0.138
     34.00     -0.111
     34.10     -0.075
     34.20     -0.029
     34.30      0.023
     34.40      0.082
     34.50      0.146
     34.60      0.213
     34.70      0.281
     34.80      0.347
     34.90      0.408
     35.00      0.462
     35.10      0.507
     35.20      0.540
     35.30      0.559
     35.40      0.565
     35.50      0.555
     35.60      0.531
     35.70      0.492
     35.80      0.440
     35.90      0.377
     36.00      0.305
     36.10      0.229
     36.20      0.151
     36.30      0.077
     36.40      0.007
     36.50     -0.056
     36.60     -0.111
     36.70     -0.160
     36.80     -0.204
     36.90     -0.245
     37.00     -0.287
     37.10     -0.331
     37.20     -0.379
     37.30     -0.432
     37.40     -0.491
     37.50     -0.554
     37.60     -0.620
     37.70     -0.683
     37.80     -0.740
     37.90     -0.785
     38.00     -0.811
     38.10     -0.814
     38.20     -0.793
     38.30     -0.747
     38.40     -0.682
     38.50     -0.605
     38.60     -0.522
     38.70     -0.444
     38.80     -0.376
     38.90     -0.323
     39.00     -0.283
     39.10     -0.254
     39.20     -0.229
     39.30     -0.201
     39.40     -0.165
     39.50     -0.116
     39.60     -0.054
     39.70      0.019
     39.80      0.097
     39.90      0.175
     40.00      0.247
     40.10      0.308
     40.20      0.355
     40.30      0.389
     40.40      0.412
     40.50      0.424
     40.60      0.430
     40.70      0.431
     40.80      0.426
     40.90      0.417
     41.00      0.401
     41.10      0.377
     41.20      0.344
     41.30      0.302
     41.40      0.252
     41.50      0.195
     41.60      0.135
     41.70      0.076
     41.80      0.018
     41.90     -0.035
     42.00     -0.084
     42.10     -0.128
     42.20     -0.169
     42.30     -0.208
     42.40     -0.247
     42.50     -0.286
     42.60     -0.326
     42.70     -0.363
     42.80     -0.398
     42.90     -0.428
     43.00     -0.453
     43.10     -0.472
     43.20     -0.488
     43.30     -0.502
     43.40     -0.517
     43.50     -0.532
     43.60     -0.549
     43.70     -0.564
     43.80     -0.573
     43.90     -0.572
     44.00     -0.557
     44.10     -0.525
     44.20     -0.475
     44.30     -0.408
     44.40     -0.328
     44.50     -0.237
     44.60     -0.139
     44.70     -0.034
     44.80      0.076
     44.90      0.194
     45.00      0.320
     45.10      0.454
     45.20      0.596
     45.30      0.740
     45.40      0.882
     45.50      1.014
     45.60      1.131
     45.70      1.230
     45.80      1.312
     45.90      1.380
     46.00      1.443
     46.10      1.506
     46.20      1.577
     46.30      1.657
     46.40      1.745
     46.50      1.833
     46.60      1.910
     46.70      1.963
     46.80      1.980
     46.90      1.954
     47.00      1.880
     47.10      1.759
     47.20      1.597
     47.30      1.404
     47.40      1.189
     47.50      0.964
     47.60      0.737
     47.70      0.513
     47.80      0.295
     47.90      0.085
     48.00     -0.118
     48.10     -0.314
     48.20     -0.504
     48.30     -0.687
     48.40     -0.864
     48.50     -1.035
     48.60     -1.199
     48.70     -1.358
     48.80     -1.514
     48.90     -1.668
     49.00     -1.824
     49.10     -1.983
     49.20     -2.147
     49.30     -2.315
     49.40     -2.481
     49.50     -2.639
     49.60     -2.780
     49.70     -2.894
     49.80     -2.970
     49.90     -3.002
     50.00     -2.987
     50.10     -2.924
     50.20     -2.821
     50.30     -2.688
     50.40     -2.536
     50.50     -2.374
     50.60     -2.213
     50.70     -2.054
     50.80     -1.897
     50.90     -1.737
     51.00     -1.567
     51.10     -1.381
     51.20     -1.174
     51.30     -0.946
     51.40     -0.699
     51.50     -0.440
     51.60     -0.175
     51.70      0.090
     51.80      0.351
     51.90      0.606
     52.00      0.856
     52.10      1.102
     52.20      1.348
     52.30      1.591
     52.40      1.830
     52.50      2.060
     52.60      2.274
     52.70      2.467
     52.80      2.634
     52.90      2.774
     53.00      2.888
     53.10      2.979
     53.20      3.051
     53.30      3.109
     53.40      3.155
     53.50      3.189
     53.60      3.208
     53.70      3.208
     53.80      3.186
     53.90      3.137
     54.00      3.060
     54.10      2.954
     54.20      2.821
     54.30      2.665
     54.40      2.491
     54.50      2.304
     54.60      2.111
     54.70      1.916
     54.80      1.723
     54.90      1.533
     55.00      1.346
     55.10      1.160
     55.20      0.969
     55.30      0.766
     55.40      0.544
     55.50      0.298
     55.60      0.025
     55.70     -0.274
     55.80     -0.595
     55.90     -0.927
     56.00     -1.261
     56.10     -1.584
     56.20     -1.888
     56.30     -2.165
     56.40     -2.413
     56.50     -2.634
     56.60     -2.830
     56.70     -3.006
     56.80     -3.165
     56.90     -3.308
     57.00     -3.432
     57.10     -3.534
     57.20     -3.609
     57.30     -3.653
     57.40     -3.661
     57.50     -3.633
     57.60     -3.571
     57.70     -3.478
     57.80     -3.360
     57.90     -3.223
     58.00     -3.072
     58.10     -2.911
     58.20     -2.743
     58.30     -2.569
     58.40     -2.388
     58.50     -2.198
     58.60     -1.993
     58.70     -1.772
     58.80     -1.529
     58.90     -1.264
     59.00     -0.974
     59.10     -0.664
     59.20     -0.337
     59.30     -0.002
     59.40      0.333
     59.50      0.662
     59.60      0.978
     59.70      1.277
     59.80      1.559
     59.90      1.825
     60.00      2.075
     60.10      2.311
     60.20      2.531
     60.30      2.734
     60.40      2.915
     60.50      3.070
     60.60      3.197
     60.70      3.296
     60.80      3.369
     60.90      3.420
     61.00      3.452
     61.10      3.467
     61.20      3.465
     61.30      3.442
     61.40      3.388
     61.50      3.297
     61.60      3.162
     61.70      2.980
     61.80      2.755
     61.90      2.497
     62.00      2.218
     62.10      1.934
     62.20      1.660
     62.30      1.404
     62.40      1.173
     62.50      0.965
     62.60      0.775
     62.70      0.599
     62.80      0.429
     62.90      0.262
     63.00      0.096
     63.10     -0.070
     63.20     -0.234
     63.30     -0.397
     63.40     -0.562
     63.50     -0.730
     63.60     -0.903
     63.70     -1.083
     63.80     -1.266
     63.90     -1.447
     64.00     -1.618
     64.10     -1.773
     64.20     -1.907
     64.30     -2.018
     64.40     -2.112
     64.50     -2.196
     64.60     -2.280
     64.70     -2.371
     64.80     -2.472
     64.90     -2.578
     65.00     -2.680
     65.10     -2.762
     65.20     -2.809
     65.30     -2.809
     65.40     -2.756
     65.50     -2.652
     65.60     -2.509
     65.70     -2.342
     65.80     -2.168
     65.90     -2.001
     66.00     -1.849
     66.10     -1.716
     66.20     -1.597
     66.30     -1.484
     66.40     -1.369
     66.50     -1.245
     66.60     -1.108
     66.70     -0.959
     66.80     -0.799
     66.90     -0.633
     67.00     -0.463
     67.10     -0.289
     67.20     -0.112
     67.30      0.072
     67.40      0.264
     67.50      0.464
     67.60      0.670
     67.70      0.878
     67.80      1.082
     67.90      1.277
     68.00      1.460
     68.10      1.629
     68.20      1.784
     68.30      1.928
     68.40      2.060
     68.50      2.181
     68.60      2.289
     68.70      2.379
     68.80      2.446
     68.90      2.485
     69.00      2.495
     69.10      2.475
     69.20      2.430
     69.30      2.364
     69.40      2.283
     69.50      2.194
     69.60      2.101
     69.70      2.004
     69.80      1.904
     69.90      1.798
     70.00      1.684
     70.10      1.560
     70.20      1.426
     70.30      1.282
     70.40      1.130
     70.50      0.970
     70.60      0.805
     70.70      0.633
     70.80      0.455
     70.90      0.271
     71.00      0.082
     71.10     -0.111
     71.20     -0.304
     71.30     -0.492
     71.40     -0.671
     71.50     -0.836
     71.60     -0.985
     71.70     -1.116
     71.80     -1.230
     71.90     -1.328
     72.00     -1.413
     72.10     -1.484
     72.20     -1.542
     72.30     -1.587
     72.40     -1.617
     72.50     -1.633
     72.60     -1.634
     72.70     -1.622
     72.80     -1.600
     72.90     -1.572
     73.00     -1.542
     73.10     -1.513
     73.20     -1.488
     73.30     -1.464
     73.40     -1.440
     73.50     -1.412
     73.60     -1.374
     73.70     -1.323
     73.80     -1.255
     73.90     -1.170
     74.00     -1.071
     74.10     -0.960
     74.20     -0.842
     74.30     -0.723
     74.40     -0.605
     74.50     -0.491
     74.60     -0.380
     74.70     -0.272
     74.80     -0.162
     74.90     -0.050
     75.00      0.066
     75.10      0.183
     75.20      0.300
     75.30      0.410
     75.40      0.508
     75.50      0.590
     75.60      0.653
     75.70      0.697
     75.80      0.727
     75.90      0.750
     76.00      0.772
     76.10      0.801
     76.20      0.842
     76.30      0.896
     76.40      0.961
     76.50      1.032
     76.60      1.103
     76.70      1.166
     76.80      1.216
     76.90      1.249
     77.00      1.266
     77.10      1.266
     77.20      1.253
     77.30      1.228
     77.40      1.195
     77.50      1.152
     77.60      1.100
     77.70      1.037
     77.80      0.961
     77.90      0.871
     78.00      0.768
     78.10      0.654
     78.20      0.531
     78.30      0.401
     78.40      0.268
     78.50      0.133
     78.60     -0.004
     78.70     -0.142
     78.80     -0.281
     78.90     -0.422
     79.00     -0.563
     79.10     -0.701
     79.20     -0.832
     79.30     -0.953
     79.40     -1.058
     79.50     -1.142
     79.60     -1.202
     79.70     -1.236
     79.80     -1.241
     79.90     -1.218
     80.00     -1.168
     80.10     -1.094
     80.20     -1.001
     80.30     -0.891
     80.40     -0.772
     80.50     -0.648
     80.60     -0.524
     80.70     -0.405
     80.80     -0.297
     80.90     -0.202
     81.00     -0.123
     81.10     -0.064
     81.20     -0.025
     81.30     -0.005
     81.40     -0.004
     81.50     -0.017
     81.60     -0.041
     81.70     -0.069
     81.80     -0.095
     81.90     -0.114
     82.00     -0.122
     82.10     -0.117
     82.20     -0.101
     82.30     -0.077
     82.40     -0.048
     82.50     -0.017
     82.60      0.012
     82.70      0.040
     82.80      0.069
     82.90      0.102
     83.00      0.144
     83.10      0.196
     83.20      0.260
     83.30      0.334
     83.40      0.413
     83.50      0.489
     83.60      0.558
     83.70      0.612
     83.80      0.647
     83.90      0.663
     84.00      0.659
     84.10      0.639
     84.20      0.606
     84.30      0.562
     84.40      0.511
     84.50      0.457
     84.60      0.403
     84.70      0.355
     84.80      0.318
     84.90      0.298
     85.00      0.301
     85.10      0.330
     85.20      0.385
     85.30      0.463
     85.40      0.556
     85.50      0.655
     85.60      0.748
     85.70      0.824
     85.80      0.877
     85.90      0.901
     86.00      0.897
     86.10      0.867
     86.20      0.815
     86.30      0.745
     86.40      0.659
     86.50      0.560
     86.60      0.446
     86.70      0.318
     86.80      0.175
     86.90      0.017
     87.00     -0.153
     87.10     -0.331
     87.20     -0.510
     87.30     -0.685
     87.40     -0.851
     87.50     -1.003
     87.60     -1.137
     87.70     -1.252
     87.80     -1.346
     87.90     -1.420
     88.00     -1.473
     88.10     -1.508
     88.20     -1.524
     88.30     -1.523
     88.40     -1.509
     88.50     -1.482
     88.60     -1.445
     88.70     -1.400
     88.80     -1.349
     88.90     -1.293
     89.00     -1.231
     89.10     -1.164
     89.20     -1.092
     89.30     -1.016
     89.40     -0.937
     89.50     -0.854
     89.60     -0.770
     89.70     -0.682
     89.80     -0.591
     89.90     -0.495
     90.00     -0.392
     90.10     -0.281
     90.20     -0.162
     90.30     -0.035
     90.40      0.097
     90.50      0.234
     90.60      0.372
     90.70      0.510
     90.80      0.644
     90.90      0.773
     91.00      0.893
     91.10      1.002
     91.20      1.094
     91.30      1.165
     91.40      1.213
     91.50      1.237
     91.60      1.242
     91.70      1.234
     91.80      1.222
     91.90      1.219
     92.00      1.234
     92.10      1.272
     92.20      1.333
     92.30      1.409
     92.40      1.486
     92.50      1.548
     92.60      1.579
     92.70      1.566
     92.80      1.504
     92.90      1.393
     93.00      1.244
     93.10      1.071
     93.20      0.890
     93.30      0.716
     93.40      0.559
     93.50      0.424
     93.60      0.310
     93.70      0.212
     93.80      0.124
     93.90      0.040
     94.00     -0.045
     94.10     -0.132
     94.20     -0.219
     94.30     -0.303
     94.40     -0.381
     94.50     -0.448
     94.60     -0.501
     94.70     -0.540
     94.80     -0.564
     94.90     -0.574
     95.00     -0.571
     95.10     -0.557
     95.20     -0.534
     95.30     -0.506
     95.40     -0.475
     95.50     -0.446
     95.60     -0.422
     95.70     -0.405
     95.80     -0.398
     95.90     -0.401
     96.00     -0.413
     96.10     -0.433
     96.20     -0.460
     96.30     -0.493
     96.40     -0.531
     96.50     -0.575
     96.60     -0.624
     96.70     -0.679
     96.80     -0.739
     96.90     -0.803
     97.00     -0.869
     97.10     -0.937
     97.20     -1.006
     97.30     -1.075
     97.40     -1.144
     97.50     -1.213
     97.60     -1.279
     97.70     -1.339
     97.80     -1.387
     97.90     -1.417
     98.00     -1.423
     98.10     -1.401
     98.20     -1.350
     98.30     -1.272
     98.40     -1.171
     98.50     -1.053
     98.60     -0.923
     98.70     -0.784
     98.80     -0.638
     98.90     -0.483
     99.00     -0.316
     99.10     -0.137
     99.20      0.054
     99.30      0.251
     99.40      0.446
     99.50      0.626
     99.60      0.782
     99.70      0.908
     99.80      1.000
     99.90      1.064
    100.00      1.109
    100.10      1.146
    100.20      1.188
    100.30      1.242
    100.40      1.311
    100.50      1.391
    100.60      1.475
    100.70      1.554
    100.80      1.619
    100.90      1.665
    101.00      1.690
    101.10      1.697
    101.20      1.691
    101.30      1.677
    101.40      1.658
    101.50      1.633
    101.60      1.599
    101.70      1.550
    101.80      1.482
    101.90      1.392
    102.00      1.281
    102.10      1.151
    102.20      1.009
    102.30      0.862
    102.40      0.715
    102.50      0.572
    102.60      0.436
    102.70      0.306
    102.80      0.184
    102.90      0.070
    103.00     -0.035
    103.10     -0.129
    103.20     -0.211
    103.30     -0.280
    103.40     -0.341
    103.50     -0.399
    103.60     -0.460
    103.70     -0.531
    103.80     -0.618
    103.90     -0.721
    104.00     -0.836
    104.10     -0.957
    104.20     -1.076
    104.30     -1.185
    104.40     -1.278
    104.50     -1.356
    104.60     -1.423
    104.70     -1.485
    104.80     -1.548
    104.90     -1.616
    105.00     -1.688
    105.10     -1.759
    105.20     -1.819
    105.30     -1.857
    105.40     -1.865
    105.50     -1.837
    105.60     -1.774
    105.70     -1.682
    105.80     -1.571
    105.90     -1.450
    106.00     -1.329
    106.10     -1.210
    106.20     -1.093
    106.30     -0.974
    106.40     -0.847
    106.50     -0.707
    106.60     -0.553
    106.70     -0.390
    106.80     -0.225
    106.90     -0.070
    107.00      0.066
    107.10      0.173
    107.20      0.251
    107.30      0.303
    107.40      0.337
    107.50      0.367
    107.60      0.406
    107.70      0.466
    107.80      0.554
    107.90      0.671
    108.00      0.815
    108.10      0.978
    108.20      1.149
    108.30      1.319
    108.40      1.479
    108.50      1.621
    108.60      1.743
    108.70      1.841
    108.80      1.918
    108.90      1.973
    109.00      2.009
    109.10      2.028
    109.20      2.031
    109.30      2.019
    109.40      1.993
    109.50      1.955
    109.60      1.904
    109.70      1.843
    109.80      1.770
    109.90      1.686
    110.00      1.590
    110.10      1.479
    110.20      1.353
    110.30      1.209
    110.40      1.048
    110.50      0.868
    110.60      0.671
    110.70      0.458
    110.80      0.234
    110.90      0.001
    111.00     -0.238
    111.10     -0.479
    111.20     -0.719
    111.30     -0.955
    111.40     -1.185
    111.50     -1.405
    111.60     -1.614
    111.70     -1.806
    111.80     -1.979
    111.90     -2.130
    112.00     -2.257
    112.10     -2.357
    112.20     -2.431
    112.30     -2.478
    112.40     -2.501
    112.50     -2.499
    112.60     -2.475
    112.70     -2.430
    112.80     -2.364
    112.90     -2.279
    113.00     -2.175
    113.10     -2.055
    113.20     -1.922
    113.30     -1.779
    113.40     -1.627
    113.50     -1.470
    113.60     -1.308
    113.70     -1.138
    113.80     -0.957
    113.90     -0.761
    114.00     -0.546
    114.10     -0.312
    114.20     -0.059
    114.30      0.209
    114.40      0.483
    114.50      0.754
    114.60      1.013
    114.70      1.251
    114.80      1.462
    114.90      1.644
    115.00      1.798
    115.10      1.925
    115.20      2.029
    115.30      2.116
    115.40      2.186
    115.50      2.242
    115.60      2.283
    115.70      2.309
    115.80      2.316
    115.90      2.306
    116.00      2.275
    116.10      2.226
    116.20      2.157
    116.30      2.072
    116.40      1.970
    116.50      1.854
    116.60      1.725
    116.70      1.587
    116.80      1.441
    116.90      1.290
    117.00      1.134
    117.10      0.976
    117.20      0.815
    117.30      0.649
    117.40      0.476
    117.50      0.297
    117.60      0.109
    117.70     -0.084
    117.80     -0.280
    117.90     -0.472
    118.00     -0.655
    118.10     -0.823
    118.20     -0.972
    118.30     -1.102
    118.40     -1.215
    118.50     -1.316
    118.60     -1.411
    118.70     -1.504
    118.80     -1.600
    118.90     -1.700
    119.00     -1.801
    119.10     -1.899
    119.20     -1.986
    119.30     -2.057
    119.40     -2.106
    119.50     -2.129
    119.60     -2.126
    119.70     -2.097
    119.80     -2.045
    119.90     -1.973
    120.00     -1.883
    120.10     -1.778
    120.20     -1.658
    120.30     -1.524
    120.40     -1.375
    120.50     -1.213
    120.60     -1.037
    120.70     -0.849
    120.80     -0.651
    120.90     -0.448
    121.00     -0.244
    121.10     -0.047
    121.20      0.139
    121.30      0.307
    121.40      0.456
    121.50      0.584
    121.60      0.694
    121.70      0.791
    121.80      0.880
    121.90      0.968
    122.00      1.059
    122.10      1.154
    122.20      1.252
    122.30      1.348
    122.40      1.435
    122.50      1.507
    122.60      1.560
    122.70      1.592
    122.80      1.605
    122.90      1.604
    123.00      1.595
    123.10      1.583
    123.20      1.570
    123.30      1.554
    123.40      1.532
    123.50      1.494
    123.60      1.433
    123.70      1.342
    123.80      1.220
    123.90      1.067
    124.00      0.889
    124.10      0.693
    124.20      0.490
    124.30      0.285
    124.40      0.085
    124.50     -0.108
    124.60     -0.292
    124.70     -0.469
    124.80     -0.638
    124.90     -0.798
    125.00     -0.945
    125.10     -1.077
    125.20     -1.189
    125.30     -1.278
    125.40     -1.342
    125.50     -1.381
    125.60     -1.397
    125.70     -1.389
    125.80     -1.357
    125.90     -1.301
    126.00     -1.217
    126.10     -1.102
    126.20     -0.954
    126.30     -0.772
    126.40     -0.557
    126.50     -0.315
    126.60     -0.054
    126.70      0.213
    126.80      0.477
    126.90      0.724
    127.00      0.947
    127.10      1.138
    127.20      1.291
    127.30      1.404
    127.40      1.476
    127.50      1.509
    127.60      1.504
    127.70      1.464
    127.80      1.394
    127.90      1.298
    128.00      1.179
    128.10      1.043
    128.20      0.891
    128.30      0.728
    128.40      0.554
    128.50      0.372
    128.60      0.183
    128.70     -0.010
    128.80     -0.204
    128.90     -0.396
    129.00     -0.584
    129.10     -0.764
    129.20     -0.935
    129.30     -1.097
    129.40     -1.249
    129.50     -1.392
    129.60     -1.523
    129.70     -1.641
    129.80     -1.740
    129.90     -1.816
    130.00     -1.863
    130.10     -1.879
    130.20     -1.864
    130.30     -1.821
    130.40     -1.754
    130.50     -1.672
    130.60     -1.580
    130.70     -1.482
    130.80     -1.382
    130.90     -1.276
    131.00     -1.163
    131.10     -1.037
    131.20     -0.898
    131.30     -0.746
    131.40     -0.586
    131.50     -0.423
    131.60     -0.266
    131.70     -0.122
    131.80      0.003
    131.90      0.111
    132.00      0.202
    132.10      0.283
    132.20      0.359
    132.30      0.438
    132.40      0.524
    132.50      0.620
    132.60      0.726
    132.70      0.842
    132.80      0.967
    132.90      1.101
    133.00      1.243
    133.10      1.392
    133.20      1.544
    133.30      1.694
    133.40      1.834
    133.50      1.958
    133.60      2.055
    133.70      2.119
    133.80      2.149
    133.90      2.144
    134.00      2.111
    134.10      2.057
    134.20      1.991
    134.30      1.920
    134.40      1.847
    134.50      1.773
    134.60      1.696
    134.70      1.611
    134.80      1.517
    134.90      1.409
    135.00      1.288
    135.10      1.157
    135.20      1.018
    135.30      0.874
    135.40      0.728
    135.50      0.578
    135.60      0.422
    135.70      0.257
    135.80      0.080
    135.90     -0.111
    136.00     -0.313
    136.10     -0.523
    136.20     -0.735
    136.30     -0.941
    136.40     -1.135
    136.50     -1.308
    136.60     -1.457
    136.70     -1.579
    136.80     -1.673
    136.90     -1.740
    137.00     -1.784
    137.10     -1.810
    137.20     -1.823
    137.30     -1.833
    137.40     -1.846
    137.50     -1.869
    137.60     -1.905
    137.70     -1.953
    137.80     -2.011
    137.90     -2.071
    138.00     -2.121
    138.10     -2.154
    138.20     -2.163
    138.30     -2.143
    138.40     -2.099
    138.50     -2.035
    138.60     -1.961
    138.70     -1.885
    138.80     -1.814
    138.90     -1.748
    139.00     -1.685
    139.10     -1.617
    139.20     -1.533
    139.30     -1.425
    139.40     -1.284
    139.50     -1.106
    139.60     -0.890
    139.70     -0.636
    139.80     -0.349
    139.90     -0.033
    140.00      0.309
    140.10      0.669
    140.20      1.041
    140.30      1.413
    140.40      1.770
    140.50      2.095
    140.60      2.372
    140.70      2.586
    140.80      2.725
    140.90      2.790
    141.00      2.787
    141.10      2.730
    141.20      2.638
    141.30      2.531
    141.40      2.424
    141.50      2.328
    141.60      2.246
    141.70      2.175
    141.80      2.106
    141.90      2.032
    142.00      1.948
    142.10      1.851
    142.20      1.746
    142.30      1.637
    142.40      1.532
    142.50      1.436
    142.60      1.350
    142.70      1.271
    142.80      1.192
    142.90      1.105
    143.00      1.003
    143.10      0.881
    143.20      0.741
    143.30      0.587
    143.40      0.426
    143.50      0.266
    143.60      0.116
    143.70     -0.023
    143.80     -0.148
    143.90     -0.262
    144.00     -0.371
    144.10     -0.476
    144.20     -0.582
    144.30     -0.688
    144.40     -0.794
    144.50     -0.899
    144.60     -1.000
    144.70     -1.099
    144.80     -1.198
    144.90     -1.301
    145.00     -1.415
    145.10     -1.543
    145.20     -1.688
    145.30     -1.849
    145.40     -2.019
    145.50     -2.190
    145.60     -2.351
    145.70     -2.490
    145.80     -2.598
    145.90     -2.667
    146.00     -2.693
    146.10     -2.677
    146.20     -2.622
    146.30     -2.533
    146.40     -2.419
    146.50     -2.285
    146.60     -2.139
    146.70     -1.987
    146.80     -1.831
    146.90     -1.676
    147.00     -1.521
    147.10     -1.367
    147.20     -1.210
    147.30     -1.047
    147.40     -0.873
    147.50     -0.686
    147.60     -0.480
    147.70     -0.256
    147.80     -0.013
    147.90      0.245
    148.00      0.511
    148.10      0.777
    148.20      1.034
    148.30      1.274
    148.40      1.490
    148.50      1.680
    148.60      1.843
    148.70      1.981
    148.80      2.098
    148.90      2.199
    149.00      2.288
    149.10      2.366
    149.20      2.435
    149.30      2.494
    149.40      2.541
    149.50      2.576
    149.60      2.599
    149.70      2.610
    149.80      2.611
    149.90      2.602
    150.00      2.580
    150.10      2.543
    150.20      2.485
    150.30      2.399
    150.40      2.279
    150.50      2.121
    150.60      1.925
    150.70      1.693
    150.80      1.435
    150.90      1.160
    151.00      0.880
    151.10      0.603
    151.20      0.337
    151.30      0.083
    151.40     -0.159
    151.50     -0.391
    151.60     -0.616
    151.70     -0.835
    151.80     -1.045
    151.90     -1.240
    152.00     -1.413
    152.10     -1.555
    152.20     -1.660
    152.30     -1.724
    152.40     -1.750
    152.50     -1.740
    152.60     -1.703
    152.70     -1.647
    152.80     -1.578
    152.90     -1.501
    153.00     -1.418
    153.10     -1.329
    153.20     -1.234
    153.30     -1.132
    153.40     -1.026
    153.50     -0.919
    153.60     -0.815
    153.70     -0.723
    153.80     -0.648
    153.90     -0.595
    154.00     -0.569
    154.10     -0.569
    154.20     -0.595
    154.30     -0.646
    154.40     -0.718
    154.50     -0.808
    154.60     -0.911
    154.70     -1.024
    154.80     -1.141
    154.90     -1.256
    155.00     -1.362
    155.10     -1.454
    155.20     -1.525
    155.30     -1.571
    155.40     -1.591
    155.50     -1.584
    155.60     -1.553
    155.70     -1.500
    155.80     -1.430
    155.90     -1.347
    156.00     -1.254
    156.10     -1.154
    156.20     -1.046
    156.30     -0.930
    156.40     -0.804
    156.50     -0.665
    156.60     -0.509
    156.70     -0.332
    156.80     -0.132
    156.90      0.092
    157.00      0.337
    157.10      0.599
    157.20      0.868
    157.30      1.134
    157.40      1.387
    157.50      1.617
    157.60      1.816
    157.70      1.982
    157.80      2.119
    157.90      2.231
    158.00      2.327
    158.10      2.416
    158.20      2.503
    158.30      2.591
    158.40      2.678
    158.50      2.759
    158.60      2.826
    158.70      2.872
    158.80      2.891
    158.90      2.880
    159.00      2.841
    159.10      2.776
    159.20      2.690
    159.30      2.588
    159.40      2.473
    159.50      2.346
    159.60      2.206
    159.70      2.050
    159.80      1.873
    159.90      1.674
    160.00      1.451
    160.10      1.205
    160.20      0.939
    160.30      0.659
    160.40      0.373
    160.50      0.089
    160.60     -0.185
    160.70     -0.442
    160.80     -0.678
    160.90     -0.891
    161.00     -1.083
    161.10     -1.258
    161.20     -1.425
    161.30     -1.592
    161.40     -1.767
    161.50     -1.953
    161.60     -2.150
    161.70     -2.355
    161.80     -2.556
    161.90     -2.741
    162.00     -2.897
    162.10     -3.012
    162.20     -3.079
    162.30     -3.098
    162.40     -3.074
    162.50     -3.015
    162.60     -2.933
    162.70     -2.838
    162.80     -2.737
    162.90     -2.632
    163.00     -2.523
    163.10     -2.405
    163.20     -2.273
    163.30     -2.123
    163.40     -1.953
    163.50     -1.766
    163.60     -1.565
    163.70     -1.356
    163.80     -1.147
    163.90     -0.941
    164.00     -0.743
    164.10     -0.554
    164.20     -0.374
    164.30     -0.202
    164.40     -0.038
    164.50      0.119
    164.60      0.270
    164.70      0.416
    164.80      0.560
    164.90      0.705
    165.00      0.852
    165.10      1.006
    165.20      1.165
    165.30      1.329
    165.40      1.491
    165.50      1.645
    165.60      1.783
    165.70      1.895
    165.80      1.975
    165.90      2.020
    166.00      2.030
    166.10      2.006
    166.20      1.953
    166.30      1.876
    166.40      1.781
    166.50      1.674
    166.60      1.558
    166.70      1.438
    166.80      1.320
    166.90      1.209
    167.00      1.111
    167.10      1.032
    167.20      0.974
    167.30      0.940
    167.40      0.929
    167.50      0.935
    167.60      0.954
    167.70      0.978
    167.80      0.999
    167.90      1.011
    168.00      1.011
    168.10      0.995
    168.20      0.961
    168.30      0.909
    168.40      0.838
    168.50      0.748
    168.60      0.640
    168.70      0.515
    168.80      0.376
    168.90      0.228
    169.00      0.075
    169.10     -0.076
    169.20     -0.221
    169.30     -0.356
    169.40     -0.478
    169.50     -0.585
    169.60     -0.678
    169.70     -0.755
    169.80     -0.818
    169.90     -0.866
    170.00     -0.900
    170.10     -0.922
    170.20     -0.936
    170.30     -0.945
    170.40     -0.954
    170.50     -0.968
    170.60     -0.987
    170.70     -1.011
    170.80     -1.035
    170.90     -1.052
    171.00     -1.053
    171.10     -1.032
    171.20     -0.987
    171.30     -0.920
    171.40     -0.839
    171.50     -0.753
    171.60     -0.677
    171.70     -0.620
    171.80     -0.586
    171.90     -0.577
    172.00     -0.586
    172.10     -0.603
    172.20     -0.616
    172.30     -0.617
    172.40     -0.600
    172.50     -0.566
    172.60     -0.520
    172.70     -0.467
    172.80     -0.416
    172.90     -0.371
    173.00     -0.331
    173.10     -0.295
    173.20     -0.257
    173.30     -0.213
    173.40     -0.159
    173.50     -0.095
    173.60     -0.025
    173.70      0.045
    173.80      0.107
    173.90      0.155
    174.00      0.188
    174.10      0.206
    174.20      0.214
    174.30      0.218
    174.40      0.227
    174.50      0.245
    174.60      0.276
    174.70      0.320
    174.80      0.375
    174.90      0.438
    175.00      0.505
    175.10      0.570
    175.20      0.630
    175.30      0.681
    175.40      0.721
    175.50      0.745
    175.60      0.752
    175.70      0.740
    175.80      0.707
    175.90      0.655
    176.00      0.587
    176.10      0.506
    176.20      0.418
    176.30      0.327
    176.40      0.239
    176.50      0.157
    176.60      0.083
    176.70      0.018
    176.80     -0.034
    176.90     -0.073
    177.00     -0.096
    177.10     -0.103
    177.20     -0.092
    177.30     -0.068
    177.40     -0.035
    177.50     -0.003
    177.60      0.019
    177.70      0.020
    177.80     -0.007
    177.90     -0.065
    178.00     -0.153
    178.10     -0.266
    178.20     -0.393
    178.30     -0.523
    178.40     -0.647
    178.50     -0.754
    178.60     -0.841
    178.70     -0.904
    178.80     -0.943
    178.90     -0.959
    179.00     -0.951
    179.10     -0.918
    179.20     -0.858
    179.30     -0.769
    179.40     -0.649
    179.50     -0.500
    179.60     -0.324
    179.70     -0.127
    179.80      0.086
    179.90      0.308
    180.00      0.532
    180.10      0.753
    180.20      0.969
    180.30      1.175
    180.40      1.367
    180.50      1.541
    180.60      1.690
    180.70      1.807
    180.80      1.886
    180.90      1.923
    181.00      1.916
    181.10      1.869
    181.20      1.788
    181.30      1.681
    181.40      1.557
    181.50      1.423
    181.60      1.284
    181.70      1.140
    181.80      0.988
    181.90      0.825
    182.00      0.646
    182.10      0.451
    182.20      0.242
    182.30      0.024
    182.40     -0.192
    182.50     -0.399
    182.60     -0.588
    182.70     -0.753
    182.80     -0.894
    182.90     -1.012
    183.00     -1.112
    183.10     -1.199
    183.20     -1.278
    183.30     -1.350
    183.40     -1.413
    183.50     -1.464
    183.60     -1.499
    183.70     -1.514
    183.80     -1.510
    183.90     -1.488
    184.00     -1.455
    184.10     -1.419
    184.20     -1.388
    184.30     -1.370
    184.40     -1.366
    184.50     -1.375
    184.60     -1.391
    184.70     -1.405
    184.80     -1.409
    184.90     -1.395
    185.00     -1.357
    185.10     -1.295
    185.20     -1.211
    185.30     -1.109
    185.40     -0.994
    185.50     -0.871
    185.60     -0.743
    185.70     -0.612
    185.80     -0.477
    185.90     -0.338
    186.00     -0.199
    186.10     -0.061
    186.20      0.071
    186.30      0.193
    186.40      0.301
    186.50      0.395
    186.60      0.476
    186.70      0.551
    186.80      0.625
    186.90      0.705
    187.00      0.795
    187.10      0.893
    187.20      0.993
    187.30      1.085
    187.40      1.158
    187.50      1.199
    187.60      1.203
    187.70      1.169
    187.80      1.102
    187.90      1.016
    188.00      0.924
    188.10      0.844
    188.20      0.787
    188.30      0.762
    188.40      0.771
    188.50      0.812
    188.60      0.876
    188.70      0.959
    188.80      1.052
    188.90      1.151
    189.00      1.253
    189.10      1.358
    189.20      1.465
    189.30      1.570
    189.40      1.669
    189.50      1.756
    189.60      1.824
    189.70      1.865
    189.80      1.875
    189.90      1.849
    190.00      1.787
    190.10      1.689
    190.20      1.559
    190.30      1.399
    190.40      1.211
    190.50      0.998
    190.60      0.761
    190.70      0.505
    190.80      0.234
    190.90     -0.046
    191.00     -0.326
    191.10     -0.597
    191.20     -0.850
    191.30     -1.077
    191.40     -1.273
    191.50     -1.435
    191.60     -1.561
    191.70     -1.653
    191.80     -1.714
    191.90     -1.748
    192.00     -1.758
    192.10     -1.753
    192.20     -1.738
    192.30     -1.723
    192.40     -1.716
    192.50     -1.727
    192.60     -1.759
    192.70     -1.817
    192.80     -1.897
    192.90     -1.994
    193.00     -2.097
    193.10     -2.194
    193.20     -2.273
    193.30     -2.324
    193.40     -2.340
    193.50     -2.318
    193.60     -2.258
    193.70     -2.164
    193.80     -2.039
    193.90     -1.888
    194.00     -1.714
    194.10     -1.519
    194.20     -1.306
    194.30     -1.076
    194.40     -0.834
    194.50     -0.582
    194.60     -0.325
    194.70     -0.070
    194.80      0.178
    194.90      0.416
    195.00      0.638
    195.10      0.844
    195.20      1.031
    195.30      1.199
    195.40      1.347
    195.50      1.474
    195.60      1.581
    195.70      1.667
    195.80      1.732
    195.90      1.776
    196.00      1.801
    196.10      1.807
    196.20      1.797
    196.30      1.770
    196.40      1.728
    196.50      1.672
    196.60      1.603
    196.70      1.524
    196.80      1.439
    196.90      1.351
    197.00      1.264
    197.10      1.183
    197.20      1.112
    197.30      1.052
    197.40      1.004
    197.50      0.971
    197.60      0.952
    197.70      0.946
    197.80      0.955
    197.90      0.977
    198.00      1.011
    198.10      1.052
    198.20      1.095
    198.30      1.135
    198.40      1.165
    198.50      1.177
    198.60      1.169
    198.70      1.141
    198.80      1.094
    198.90      1.034
    199.00      0.968
    199.10      0.898
    199.20      0.828
    199.30      0.756
    199.40      0.676
    199.50      0.581
    199.60      0.464
    199.70      0.320
    199.80      0.149
    199.90     -0.044
    200.00     -0.253
    200.10     -0.466
    200.20     -0.674
    200.30     -0.869
    200.40     -1.047
    200.50     -1.209
    200.60     -1.358
    200.70     -1.496
    200.80     -1.628
    200.90     -1.755
    201.00     -1.875
    201.10     -1.985
    201.20     -2.079
    201.30     -2.154
    201.40     -2.208
    201.50     -2.241
    201.60     -2.255
    201.70     -2.257
    201.80     -2.249
    201.90     -2.236
    202.00     -2.218
    202.10     -2.196
    202.20     -2.167
    202.30     -2.127
    202.40     -2.072
    202.50     -1.997
    202.60     -1.901
    202.70     -1.782
    202.80     -1.640
    202.90     -1.474
    203.00     -1.287
    203.10     -1.082
    203.20     -0.864
    203.30     -0.638
    203.40     -0.409
    203.50     -0.185
    203.60      0.030
    203.70      0.234
    203.80      0.428
    203.90      0.612
    204.00      0.791
    204.10      0.968
    204.20      1.143
    204.30      1.315
    204.40      1.479
    204.50      1.628
    204.60      1.756
    204.70      1.854
    204.80      1.919
    204.90      1.952
    205.00      1.956
    205.10      1.937
    205.20      1.904
    205.30      1.862
    205.40      1.818
    205.50      1.773
    205.60      1.728
    205.70      1.680
    205.80      1.628
    205.90      1.570
    206.00      1.506
    206.10      1.437
    206.20      1.363
    206.30      1.284
    206.40      1.200
    206.50      1.108
    206.60      1.006
    206.70      0.891
    206.80      0.763
    206.90      0.624
    207.00      0.479
    207.10      0.334
    207.20      0.195
    207.30      0.070
    207.40     -0.039
    207.50     -0.130
    207.60     -0.205
    207.70     -0.267
    207.80     -0.320
    207.90     -0.368
    208.00     -0.412
    208.10     -0.454
    208.20     -0.493
    208.30     -0.528
    208.40     -0.559
    208.50     -0.585
    208.60     -0.610
    208.70     -0.632
    208.80     -0.656
    208.90     -0.681
    209.00     -0.709
    209.10     -0.739
    209.20     -0.772
    209.30     -0.807
    209.40     -0.843
    209.50     -0.879
    209.60     -0.915
    209.70     -0.947
    209.80     -0.972
    209.90     -0.983
    210.00     -0.977
    210.10     -0.949
    210.20     -0.897
    210.30     -0.825
    210.40     -0.739
    210.50     -0.646
    210.60     -0.557
    210.70     -0.477
    210.80     -0.412
    210.90     -0.361
    211.00     -0.319
    211.10     -0.279
    211.20     -0.233
    211.30     -0.176
    211.40     -0.107
    211.50     -0.027
    211.60      0.056
    211.70      0.132
    211.80      0.193
    211.90      0.234
    212.00      0.252
    212.10      0.250
    212.20      0.234
    212.30      0.211
    212.40      0.187
    212.50      0.166
    212.60      0.149
    212.70      0.135
    212.80      0.122
    212.90      0.110
    213.00      0.097
    213.10      0.089
    213.20      0.088
    213.30      0.100
    213.40      0.127
    213.50      0.170
    213.60      0.224
    213.70      0.283
    213.80      0.338
    213.90      0.384
    214.00      0.414
    214.10      0.428
    214.20      0.429
    214.30      0.422
    214.40      0.413
    214.50      0.409
    214.60      0.414
    214.70      0.425
    214.80      0.441
    214.90      0.454
    215.00      0.459
    215.10      0.447
    215.20      0.416
    215.30      0.363
    215.40      0.290
    215.50      0.200
    215.60      0.098
    215.70     -0.011
    215.80     -0.119
    215.90     -0.223
    216.00     -0.315
    216.10     -0.393
    216.20     -0.453
    216.30     -0.495
    216.40     -0.519
    216.50     -0.527
    216.60     -0.523
    216.70     -0.512
    216.80     -0.500
    216.90     -0.491
    217.00     -0.488
    217.10     -0.491
    217.20     -0.500
    217.30     -0.513
    217.40     -0.526
    217.50     -0.538
    217.60     -0.546
    217.70     -0.551
    217.80     -0.553
    217.90     -0.554
    218.00     -0.553
    218.10     -0.549
    218.20     -0.540
    218.30     -0.521
    218.40     -0.485
    218.50     -0.428
    218.60     -0.345
    218.70     -0.232
    218.80     -0.090
    218.90      0.078
    219.00      0.266
    219.10      0.466
    219.20      0.669
    219.30      0.865
    219.40      1.047
    219.50      1.208
    219.60      1.344
    219.70      1.454
    219.80      1.536
    219.90      1.594
    220.00      1.630
    220.10      1.648
    220.20      1.650
    220.30      1.639
    220.40      1.615
    220.50      1.575
    220.60      1.519
    220.70      1.442
    220.80      1.342
    220.90      1.217
    221.00      1.067
    221.10      0.894
    221.20      0.705
    221.30      0.504
    221.40      0.300
    221.50      0.099
    221.60     -0.096
    221.70     -0.282
    221.80     -0.462
    221.90     -0.639
    222.00     -0.818
    222.10     -1.003
    222.20     -1.195
    222.30     -1.392
    222.40     -1.587
    222.50     -1.771
    222.60     -1.932
    222.70     -2.058
    222.80     -2.143
    222.90     -2.183
    223.00     -2.179
    223.10     -2.139
    223.20     -2.072
    223.30     -1.986
    223.40     -1.890
    223.50     -1.787
    223.60     -1.675
    223.70     -1.549
    223.80     -1.403
    223.90     -1.231
    224.00     -1.032
    224.10     -0.811
    224.20     -0.576
    224.30     -0.340
    224.40     -0.116
    224.50      0.085
    224.60      0.258
    224.70      0.403
    224.80      0.528
    224.90      0.643
    225.00      0.759
    225.10      0.884
    225.20      1.021
    225.30      1.165
    225.40      1.307
    225.50      1.435
    225.60      1.536
    225.70      1.601
    225.80      1.626
    225.90      1.613
    226.00      1.568
    226.10      1.501
    226.20      1.421
    226.30      1.335
    226.40      1.249
    226.50      1.166
    226.60      1.085
    226.70      1.007
    226.80      0.931
    226.90      0.860
    227.00      0.793
    227.10      0.732
    227.20      0.675
    227.30      0.620
    227.40      0.560
    227.50      0.490
    227.60      0.405
    227.70      0.303
    227.80      0.185
    227.90      0.057
    228.00     -0.073
    228.10     -0.198
    228.20     -0.311
    228.30     -0.411
    228.40     -0.500
    228.50     -0.586
    228.60     -0.677
    228.70     -0.781
    228.80     -0.903
    228.90     -1.042
    229.00     -1.190
    229.10     -1.336
    229.20     -1.466
    229.30     -1.563
    229.40     -1.618
    229.50     -1.622
    229.60     -1.574
    229.70     -1.476
    229.80     -1.335
    229.90     -1.161
    230.00     -0.961
    230.10     -0.748
    230.20     -0.528
    230.30     -0.313
    230.40     -0.109
    230.50      0.075
    230.60      0.232
    230.70      0.358
    230.80      0.451
    230.90      0.512
    231.00      0.546
    231.10      0.562
    231.20      0.568
    231.30      0.572
    231.40      0.579
    231.50      0.591
    231.60      0.608
    231.70      0.624
    231.80      0.633
    231.90      0.627
    232.00      0.601
    232.10      0.552
    232.20      0.481
    232.30      0.393
    232.40      0.295
    232.50      0.195
    232.60      0.103
    232.70      0.028
    232.80     -0.026
    232.90     -0.055
    233.00     -0.060
    233.10     -0.048
    233.20     -0.024
    233.30      0.001
    233.40      0.021
    233.50      0.026
    233.60      0.015
    233.70     -0.013
    233.80     -0.055
    233.90     -0.105
    234.00     -0.156
    234.10     -0.201
    234.20     -0.235
    234.30     -0.259
    234.40     -0.271
    234.50     -0.274
    234.60     -0.271
    234.70     -0.262
    234.80     -0.247
    234.90     -0.222
    235.00     -0.185
    235.10     -0.130
    235.20     -0.057
    235.30      0.035
    235.40      0.141
    235.50      0.254
    235.60      0.368
    235.70      0.475
    235.80      0.569
    235.90      0.646
    236.00      0.707
    236.10      0.754
    236.20      0.788
    236.30      0.814
    236.40      0.831
    236.50      0.840
    236.60      0.840
    236.70      0.830
    236.80      0.809
    236.90      0.776
    237.00      0.732
    237.10      0.678
    237.20      0.616
    237.30      0.546
    237.40      0.469
    237.50      0.384
    237.60      0.292
    237.70      0.193
    237.80      0.090
    237.90     -0.014
    238.00     -0.116
    238.10     -0.211
    238.20     -0.298
    238.30     -0.379
    238.40     -0.458
    238.50     -0.538
    238.60     -0.627
    238.70     -0.728
    238.80     -0.842
    238.90     -0.968
    239.00     -1.101
    239.10     -1.235
    239.20     -1.360
    239.30     -1.471
    239.40     -1.564
    239.50     -1.635
    239.60     -1.684
    239.70     -1.710
    239.80     -1.715
    239.90     -1.697
    240.00     -1.656
    240.10     -1.588
    240.20     -1.495
    240.30     -1.377
    240.40     -1.239
    240.50     -1.086
    240.60     -0.923
    240.70     -0.756
    240.80     -0.589
    240.90     -0.422
    241.00     -0.254
    241.10     -0.083
    241.20      0.095
    241.30      0.280
    241.40      0.468
    241.50      0.653
    241.60      0.829
    241.70      0.987
    241.80      1.120
    241.90      1.224
    242.00      1.301
    242.10      1.354
    242.20      1.390
    242.30      1.415
    242.40      1.434
    242.50      1.452
    242.60      1.469
    242.70      1.483
    242.80      1.494
    242.90      1.498
    243.00      1.495
    243.10      1.485
    243.20      1.469
    243.30      1.447
    243.40      1.420
    243.50      1.385
    243.60      1.338
    243.70      1.277
    243.80      1.197
    243.90      1.096
    244.00      0.973
    244.10      0.833
    244.20      0.678
    244.30      0.514
    244.40      0.348
    244.50      0.186
    244.60      0.032
    244.70     -0.111
    244.80     -0.239
    244.90     -0.352
    245.00     -0.450
    245.10     -0.532
    245.20     -0.601
    245.30     -0.660
    245.40     -0.710
    245.50     -0.757
    245.60     -0.803
    245.70     -0.851
    245.80     -0.902
    245.90     -0.954
    246.00     -1.006
    246.10     -1.056
    246.20     -1.103
    246.30     -1.147
    246.40     -1.190
    246.50     -1.233
    246.60     -1.279
    246.70     -1.326
    246.80     -1.372
    246.90     -1.410
    247.00     -1.430
    247.10     -1.425
    247.20     -1.385
    247.30     -1.307
    247.40     -1.191
    247.50     -1.046
    247.60     -0.881
    247.70     -0.712
    247.80     -0.549
    247.90     -0.403
    248.00     -0.278
    248.10     -0.174
    248.20     -0.087
    248.30     -0.008
    248.40      0.068
    248.50      0.146
    248.60      0.228
    248.70      0.312
    248.80      0.395
    248.90      0.473
    249.00      0.541
    249.10      0.596
    249.20      0.639
    249.30      0.670
    249.40      0.692
    249.50      0.706
    249.60      0.714
    249.70      0.717
    249.80      0.718
    249.90      0.718
    250.00      0.720
    250.10      0.727
    250.20      0.743
    250.30      0.770
    250.40      0.808
    250.50      0.858
    250.60      0.916
    250.70      0.977
    250.80      1.035
    250.90      1.086
    251.00      1.127
    251.10      1.157
    251.20      1.175
    251.30      1.184
    251.40      1.185
    251.50      1.178
    251.60      1.162
    251.70      1.137
    251.80      1.097
    251.90      1.041
    252.00      0.965
    252.10      0.870
    252.20      0.757
    252.30      0.627
    252.40      0.482
    252.50      0.326
    252.60      0.160
    252.70     -0.014
    252.80     -0.195
    252.90     -0.382
    253.00     -0.570
    253.10     -0.758
    253.20     -0.941
    253.30     -1.114
    253.40     -1.274
    253.50     -1.420
    253.60     -1.550
    253.70     -1.667
    253.80     -1.772
    253.90     -1.868
    254.00     -1.955
    254.10     -2.033
    254.20     -2.098
    254.30     -2.147
    254.40     -2.174
    254.50     -2.176
    254.60     -2.152
    254.70     -2.103
    254.80     -2.033
    254.90     -1.945
    255.00     -1.846
    255.10     -1.738
    255.20     -1.621
    255.30     -1.494
    255.40     -1.351
    255.50     -1.188
    255.60     -1.000
    255.70     -0.785
    255.80     -0.545
    255.90     -0.285
    256.00     -0.015
    256.10      0.254
    256.20      0.512
    256.30      0.748
    256.40      0.958
    256.50      1.139
    256.60      1.294
    256.70      1.425
    256.80      1.538
    256.90      1.637
    257.00      1.721
    257.10      1.791
    257.20      1.845
    257.30      1.877
    257.40      1.887
    257.50      1.876
    257.60      1.846
    257.70      1.805
    257.80      1.761
    257.90      1.725
    258.00      1.705
    258.10      1.704
    258.20      1.723
    258.30      1.760
    258.40      1.806
    258.50      1.854
    258.60      1.895
    258.70      1.920
    258.80      1.926
    258.90      1.908
    259.00      1.867
    259.10      1.801
    259.20      1.714
    259.30      1.604
    259.40      1.473
    259.50      1.320
    259.60      1.147
    259.70      0.954
    259.80      0.745
    259.90      0.522
    260.00      0.289
    260.10      0.050
    260.20     -0.189
    260.30     -0.426
    260.40     -0.657
    260.50     -0.880
    260.60     -1.092
    260.70     -1.290
    260.80     -1.474
    260.90     -1.642
    261.00     -1.793
    261.10     -1.928
    261.20     -2.047
    261.30     -2.153
    261.40     -2.248
    261.50     -2.331
    261.60     -2.403
    261.70     -2.463
    261.80     -2.509
    261.90     -2.540
    262.00     -2.557
    262.10     -2.560
    262.20     -2.554
    262.30     -2.543
    262.40     -2.531
    262.50     -2.521
    262.60     -2.510
    262.70     -2.495
    262.80     -2.466
    262.90     -2.415
    263.00     -2.332
    263.10     -2.210
    263.20     -2.045
    263.30     -1.838
    263.40     -1.593
    263.50     -1.318
    263.60     -1.019
    263.70     -0.703
    263.80     -0.376
    263.90     -0.042
    264.00      0.295
    264.10      0.629
    264.20      0.952
    264.30      1.256
    264.40      1.528
    264.50      1.759
    264.60      1.943
    264.70      2.079
    264.80      2.170
    264.90      2.226
    265.00      2.259
    265.10      2.281
    265.20      2.301
    265.30      2.322
    265.40      2.344
    265.50      2.360
    265.60      2.363
    265.70      2.345
    265.80      2.301
    265.90      2.231
    266.00      2.141
    266.10      2.035
    266.20      1.921
    266.30      1.805
    266.40      1.687
    266.50      1.567
    266.60      1.442
    266.70      1.311
    266.80      1.173
    266.90      1.033
    267.00      0.899
    267.10      0.780
    267.20      0.687
    267.30      0.624
    267.40      0.594
    267.50      0.591
    267.60      0.604
    267.70      0.619
    267.80      0.621
    267.90      0.597
    268.00      0.538
    268.10      0.441
    268.20      0.307
    268.30      0.142
    268.40     -0.047
    268.50     -0.251
    268.60     -0.464
    268.70     -0.678
    268.80     -0.887
    268.90     -1.084
    269.00     -1.264
    269.10     -1.419
    269.20     -1.545
    269.30     -1.639
    269.40     -1.702
    269.50     -1.738
    269.60     -1.754
    269.70     -1.760
    269.80     -1.765
    269.90     -1.778
    270.00     -1.804
    270.10     -1.844
    270.20     -1.893
    270.30     -1.945
    270.40     -1.989
    270.50     -2.017
    270.60     -2.019
    270.70     -1.990
    270.80     -1.928
    270.90     -1.834
    271.00     -1.712
    271.10     -1.565
    271.20     -1.400
    271.30     -1.219
    271.40     -1.027
    271.50     -0.823
    271.60     -0.608
    271.70     -0.382
    271.80     -0.145
    271.90      0.100
    272.00      0.348
    272.10      0.592
    272.20      0.821
    272.30      1.026
    272.40      1.198
    272.50      1.329
    272.60      1.418
    272.70      1.468
    272.80      1.484
    272.90      1.475
    273.00      1.451
    273.10      1.418
    273.20      1.381
    273.30      1.339
    273.40      1.288
    273.50      1.225
    273.60      1.144
    273.70      1.044
    273.80      0.926
    273.90      0.797
    274.00      0.665
    274.10      0.539
    274.20      0.428
    274.30      0.336
    274.40      0.264
    274.50      0.211
    274.60      0.171
    274.70      0.142
    274.80      0.120
    274.90      0.106
    275.00      0.104
    275.10      0.117
    275.20      0.149
    275.30      0.200
    275.40      0.269
    275.50      0.349
    275.60      0.433
    275.70      0.511
    275.80      0.576
    275.90      0.622
    276.00      0.647
    276.10      0.652
    276.20      0.639
    276.30      0.612
    276.40      0.572
    276.50      0.522
    276.60      0.461
    276.70      0.387
    276.80      0.301
    276.90      0.200
    277.00      0.087
    277.10     -0.038
    277.20     -0.173
    277.30     -0.317
    277.40     -0.469
    277.50     -0.628
    277.60     -0.795
    277.70     -0.965
    277.80     -1.133
    277.90     -1.291
    278.00     -1.429
    278.10     -1.537
    278.20     -1.606
    278.30     -1.630
    278.40     -1.609
    278.50     -1.549
    278.60     -1.459
    278.70     -1.348
    278.80     -1.228
    278.90     -1.108
    279.00     -0.991
    279.10     -0.879
    279.20     -0.772
    279.30     -0.664
    279.40     -0.556
    279.50     -0.445
    279.60     -0.331
    279.70     -0.218
    279.80     -0.107
    279.90      0.002
    280.00      0.109
    280.10      0.216
    280.20      0.329
    280.30      0.451
    280.40      0.583
    280.50      0.726
    280.60      0.875
    280.70      1.024
    280.80      1.165
    280.90      1.289
    281.00      1.390
    281.10      1.461
    281.20      1.500
    281.30      1.506
    281.40      1.482
    281.50      1.431
    281.60      1.358
    281.70      1.267
    281.80      1.163
    281.90      1.052
    282.00      0.935
    282.10      0.816
    282.20      0.693
    282.30      0.565
    282.40      0.429
    282.50      0.283
    282.60      0.123
    282.70     -0.047
    282.80     -0.224
    282.90     -0.398
    283.00     -0.560
    283.10     -0.696
    283.20     -0.797
    283.30     -0.857
    283.40     -0.876
    283.50     -0.861
    283.60     -0.822
    283.70     -0.775
    283.80     -0.734
    283.90     -0.709
    284.00     -0.708
    284.10     -0.729
    284.20     -0.768
    284.30     -0.814
    284.40     -0.856
    284.50     -0.883
    284.60     -0.888
    284.70     -0.867
    284.80     -0.820
    284.90     -0.750
    285.00     -0.664
    285.10     -0.567
    285.20     -0.465
    285.30     -0.362
    285.40     -0.262
    285.50     -0.165
    285.60     -0.072
    285.70      0.017
    285.80      0.104
    285.90      0.190
    286.00      0.278
    286.10      0.368
    286.20      0.460
    286.30      0.552
    286.40      0.643
    286.50      0.728
    286.60      0.803
    286.70      0.863
    286.80      0.908
    286.90      0.935
    287.00      0.946
    287.10      0.945
    287.20      0.933
    287.30      0.913
    287.40      0.887
    287.50      0.853
    287.60      0.810
    287.70      0.753
    287.80      0.682
    287.90      0.596
    288.00      0.497
    288.10      0.389
    288.20      0.280
    288.30      0.175
    288.40      0.080
    288.50     -0.002
    288.60     -0.069
    288.70     -0.124
    288.80     -0.172
    288.90     -0.215
    289.00     -0.258
    289.10     -0.304
    289.20     -0.353
    289.30     -0.406
    289.40     -0.462
    289.50     -0.522
    289.60     -0.586
    289.70     -0.655
    289.80     -0.730
    289.90     -0.811
    290.00     -0.896
    290.10     -0.980
    290.20     -1.057
    290.30     -1.119
    290.40     -1.159
    290.50     -1.171
    290.60     -1.154
    290.70     -1.108
    290.80     -1.041
    290.90     -0.959
    291.00     -0.872
    291.10     -0.789
    291.20     -0.716
    291.30     -0.655
    291.40     -0.605
    291.50     -0.562
    291.60     -0.521
    291.70     -0.476
    291.80     -0.423
    291.90     -0.359
    292.00     -0.283
    292.10     -0.198
    292.20     -0.104
    292.30     -0.005
    292.40      0.098
    292.50      0.205
    292.60      0.317
    292.70      0.435
    292.80      0.559
    292.90      0.690
    293.00      0.825
    293.10      0.961
    293.20      1.091
    293.30      1.211
    293.40      1.316
    293.50      1.402
    293.60      1.468
    293.70      1.515
    293.80      1.544
    293.90      1.556
    294.00      1.554
    294.10      1.539
    294.20      1.509
    294.30      1.463
    294.40      1.401
    294.50      1.321
    294.60      1.224
    294.70      1.112
    294.80      0.989
    294.90      0.858
    295.00      0.723
    295.10      0.589
    295.20      0.458
    295.30      0.331
    295.40      0.210
    295.50      0.093
    295.60     -0.017
    295.70     -0.121
    295.80     -0.217
    295.90     -0.305
    296.00     -0.385
    296.10     -0.458
    296.20     -0.525
    296.30     -0.588
    296.40     -0.648
    296.50     -0.706
    296.60     -0.761
    296.70     -0.809
    296.80     -0.847
    296.90     -0.872
    297.00     -0.881
    297.10     -0.875
    297.20     -0.856
    297.30     -0.830
    297.40     -0.804
    297.50     -0.782
    297.60     -0.771
    297.70     -0.772
    297.80     -0.785
    297.90     -0.807
    298.00     -0.833
    298.10     -0.861
    298.20     -0.887
    298.30     -0.911
    298.40     -0.933
    298.50     -0.952
    298.60     -0.969
    298.70     -0.981
    298.80     -0.984
    298.90     -0.977
    299.00     -0.955
    299.10     -0.918
    299.20     -0.867
    299.30     -0.807
    299.40     -0.743
    299.50     -0.681
    299.60     -0.625
    299.70     -0.573
    299.80     -0.523
    299.90     -0.468
    300.00     -0.402
    300.10     -0.318
    300.20     -0.215
    300.30     -0.096
    300.40      0.032
    300.50      0.160
    300.60      0.277
    300.70      0.377
    300.80      0.459
    300.90      0.524
    301.00      0.582
    301.10      0.642
    301.20      0.712
    301.30      0.798
    301.40      0.901
    301.50      1.017
    301.60      1.137
    301.70      1.251
    301.80      1.349
    301.90      1.424
    302.00      1.473
    302.10      1.497
    302.20      1.500
    302.30      1.485
    302.40      1.458
    302.50      1.423
    302.60      1.382
    302.70      1.338
    302.80      1.288
    302.90      1.234
    303.00      1.175
    303.10      1.110
    303.20      1.036
    303.30      0.953
    303.40      0.859
    303.50      0.753
    303.60      0.636
    303.70      0.512
    303.80      0.385
    303.90      0.263
    304.00      0.151
    304.10      0.054
    304.20     -0.026
    304.30     -0.094
    304.40     -0.156
    304.50     -0.224
    304.60     -0.309
    304.70     -0.422
    304.80     -0.566
    304.90     -0.741
    305.00     -0.942
    305.10     -1.156
    305.20     -1.371
    305.30     -1.573
    305.40     -1.753
    305.50     -1.901
    305.60     -2.013
    305.70     -2.087
    305.80     -2.122
    305.90     -2.115
    306.00     -2.067
    306.10     -1.977
    306.20     -1.847
    306.30     -1.681
    306.40     -1.488
    306.50     -1.277
    306.60     -1.063
    306.70     -0.856
    306.80     -0.668
    306.90     -0.503
    307.00     -0.359
    307.10     -0.231
    307.20     -0.112
    307.30      0.010
    307.40      0.142
    307.50      0.287
    307.60      0.445
    307.70      0.612
    307.80      0.781
    307.90      0.944
    308.00      1.097
    308.10      1.236
    308.20      1.360
    308.30      1.472
    308.40      1.574
    308.50      1.665
    308.60      1.745
    308.70      1.809
    308.80      1.852
    308.90      1.866
    309.00      1.844
    309.10      1.782
    309.20      1.680
    309.30      1.540
    309.40      1.368
    309.50      1.174
    309.60      0.968
    309.70      0.761
    309.80      0.561
    309.90      0.375
    310.00      0.206
    310.10      0.054
    310.20     -0.083
    310.30     -0.208
    310.40     -0.325
    310.50     -0.436
    310.60     -0.542
    310.70     -0.643
    310.80     -0.738
    310.90     -0.826
    311.00     -0.904
    311.10     -0.973
    311.20     -1.034
    311.30     -1.090
    311.40     -1.142
    311.50     -1.191
    311.60     -1.234
    311.70     -1.269
    311.80     -1.289
    311.90     -1.288
    312.00     -1.260
    312.10     -1.205
    312.20     -1.124
    312.30     -1.025
    312.40     -0.919
    312.50     -0.815
    312.60     -0.725
    312.70     -0.653
    312.80     -0.599
    312.90     -0.557
    313.00     -0.518
    313.10     -0.470
    313.20     -0.406
    313.30     -0.320
    313.40     -0.216
    313.50     -0.098
    313.60      0.023
    313.70      0.137
    313.80      0.236
    313.90      0.315
    314.00      0.375
    314.10      0.421
    314.20      0.457
    314.30      0.490
    314.40      0.524
    314.50      0.558
    314.60      0.592
    314.70      0.621
    314.80      0.641
    314.90      0.652
    315.00      0.651
    315.10      0.640
    315.20      0.621
    315.30      0.594
    315.40      0.559
    315.50      0.514
    315.60      0.456
    315.70      0.384
    315.80      0.300
    315.90      0.209
    316.00      0.120
    316.10      0.044
    316.20     -0.006
    316.30     -0.022
    316.40      0.001
    316.50      0.061
    316.60      0.150
    316.70      0.258
    316.80      0.371
    316.90      0.477
    317.00      0.568
    317.10      0.639
    317.20      0.692
    317.30      0.730
    317.40      0.756
    317.50      0.774
    317.60      0.786
    317.70      0.792
    317.80      0.788
    317.90      0.773
    318.00      0.746
    318.10      0.706
    318.20      0.657
    318.30      0.602
    318.40      0.546
    318.50      0.493
    318.60      0.443
    318.70      0.397
    318.80      0.350
    318.90      0.298
    319.00      0.238
    319.10      0.165
    319.20      0.077
    319.30     -0.025
    319.40     -0.139
    319.50     -0.261
    319.60     -0.387
    319.70     -0.510
    319.80     -0.625
    319.90     -0.727
    320.00     -0.813
    320.10     -0.881
    320.20     -0.930
    320.30     -0.963
    320.40     -0.984
    320.50     -0.998
    320.60     -1.012
    320.70     -1.030
    320.80     -1.055
    320.90     -1.088
    321.00     -1.126
    321.10     -1.165
    321.20     -1.199
    321.30     -1.223
    321.40     -1.232
    321.50     -1.224
    321.60     -1.199
    321.70     -1.161
    321.80     -1.113
    321.90     -1.059
    322.00     -1.003
    322.10     -0.947
    322.20     -0.893
    322.30     -0.843
    322.40     -0.797
    322.50     -0.755
    322.60     -0.717
    322.70     -0.680
    322.80     -0.642
    322.90     -0.601
    323.00     -0.550
    323.10     -0.484
    323.20     -0.400
    323.30     -0.294
    323.40     -0.166
    323.50     -0.019
    323.60      0.142
    323.70      0.310
    323.80      0.476
    323.90      0.634
    324.00      0.781
    324.10      0.916
    324.20      1.041
    324.30      1.157
    324.40      1.270
    324.50      1.381
    324.60      1.491
    324.70      1.596
    324.80      1.693
    324.90      1.775
    325.00      1.835
    325.10      1.868
    325.20      1.871
    325.30      1.842
    325.40      1.783
    325.50      1.698
    325.60      1.594
    325.70      1.477
    325.80      1.354
    325.90      1.235
    326.00      1.125
    326.10      1.030
    326.20      0.953
    326.30      0.897
    326.40      0.860
    326.50      0.838
    326.60      0.827
    326.70      0.819
    326.80      0.807
    326.90      0.784
    327.00      0.744
    327.10      0.682
    327.20      0.596
    327.30      0.485
    327.40      0.351
    327.50      0.195
    327.60      0.021
    327.70     -0.166
    327.80     -0.364
    327.90     -0.566
    328.00     -0.768
    328.10     -0.965
    328.20     -1.151
    328.30     -1.323
    328.40     -1.476
    328.50     -1.610
    328.60     -1.722
    328.70     -1.814
    328.80     -1.889
    328.90     -1.949
    329.00     -1.998
    329.10     -2.035
    329.20     -2.063
    329.30     -2.080
    329.40     -2.082
    329.50     -2.067
    329.60     -2.030
    329.70     -1.971
    329.80     -1.888
    329.90     -1.785
    330.00     -1.666
    330.10     -1.536
    330.20     -1.402
    330.30     -1.269
    330.40     -1.138
    330.50     -1.010
    330.60     -0.880
    330.70     -0.745
    330.80     -0.598
    330.90     -0.435
    331.00     -0.255
    331.10     -0.059
    331.20      0.147
    331.30      0.355
    331.40      0.556
    331.50      0.741
    331.60      0.902
    331.70      1.037
    331.80      1.144
    331.90      1.225
    332.00      1.284
    332.10      1.326
    332.20      1.355
    332.30      1.373
    332.40      1.383
    332.50      1.388
    332.60      1.388
    332.70      1.384
    332.80      1.379
    332.90      1.374
    333.00      1.370
    333.10      1.366
    333.20      1.362
    333.30      1.357
    333.40      1.349
    333.50      1.339
    333.60      1.325
    333.70      1.310
    333.80      1.295
    333.90      1.280
    334.00      1.264
    334.10      1.246
    334.20      1.221
    334.30      1.183
    334.40      1.127
    334.50      1.049
    334.60      0.950
    334.70      0.832
    334.80      0.700
    334.90      0.562
    335.00      0.423
    335.10      0.284
    335.20      0.144
    335.30     -0.001
    335.40     -0.160
    335.50     -0.338
    335.60     -0.537
    335.70     -0.756
    335.80     -0.985
    335.90     -1.211
    336.00     -1.416
    336.10     -1.587
    336.20     -1.713
    336.30     -1.788
    336.40     -1.817
    336.50     -1.807
    336.60     -1.770
    336.70     -1.718
    336.80     -1.660
    336.90     -1.603
    337.00     -1.545
    337.10     -1.487
    337.20     -1.423
    337.30     -1.352
    337.40     -1.274
    337.50     -1.190
    337.60     -1.106
    337.70     -1.024
    337.80     -0.949
    337.90     -0.881
    338.00     -0.819
    338.10     -0.759
    338.20     -0.697
    338.30     -0.628
    338.40     -0.550
    338.50     -0.463
    338.60     -0.367
    338.70     -0.266
    338.80     -0.161
    338.90     -0.054
    339.00      0.053
    339.10      0.159
    339.20      0.265
    339.30      0.368
    339.40      0.469
    339.50      0.565
    339.60      0.656
    339.70      0.745
    339.80      0.833
    339.90      0.924
    340.00      1.023
    340.10      1.133
    340.20      1.254
    340.30      1.381
    340.40      1.509
    340.50      1.626
    340.60      1.723
    340.70      1.792
    340.80      1.826
    340.90      1.825
    341.00      1.794
    341.10      1.737
    341.20      1.661
    341.30      1.572
    341.40      1.472
    341.50      1.360
    341.60      1.233
    341.70      1.089
    341.80      0.929
    341.90      0.755
    342.00      0.575
    342.10      0.399
    342.20      0.239
    342.30      0.102
    342.40     -0.005
    342.50     -0.082
    342.60     -0.134
    342.70     -0.168
    342.80     -0.193
    342.90     -0.218
    343.00     -0.249
    343.10     -0.288
    343.20     -0.336
    343.30     -0.392
    343.40     -0.452
    343.50     -0.517
    343.60     -0.587
    343.70     -0.666
    343.80     -0.756
    343.90     -0.862
    344.00     -0.985
    344.10     -1.126
    344.20     -1.284
    344.30     -1.453
    344.40     -1.629
    344.50     -1.805
    344.60     -1.973
    344.70     -2.125
    344.80     -2.253
    344.90     -2.349
    345.00     -2.406
    345.10     -2.417
    345.20     -2.380
    345.30     -2.293
    345.40     -2.160
    345.50     -1.986
    345.60     -1.781
    345.70     -1.553
    345.80     -1.312
    345.90     -1.065
    346.00     -0.817
    346.10     -0.571
    346.20     -0.328
    346.30     -0.086
    346.40      0.155
    346.50      0.395
    346.60      0.633
    346.70      0.866
    346.80      1.091
    346.90      1.305
    347.00      1.503
    347.10      1.682
    347.20      1.839
    347.30      1.970
    347.40      2.074
    347.50      2.149
    347.60      2.193
    347.70      2.208
    347.80      2.196
    347.90      2.159
    348.00      2.102
    348.10      2.028
    348.20      1.941
    348.30      1.845
    348.40      1.738
    348.50      1.623
    348.60      1.497
    348.70      1.362
    348.80      1.219
    348.90      1.070
    349.00      0.919
    349.10      0.773
    349.20      0.634
    349.30      0.508
    349.40      0.395
    349.50      0.295
    349.60      0.205
    349.70      0.120
    349.80      0.037
    349.90     -0.049
    350.00     -0.140
    350.10     -0.239
    350.20     -0.346
    350.30     -0.459
    350.40     -0.576
    350.50     -0.696
    350.60     -0.814
    350.70     -0.927
    350.80     -1.032
    350.90     -1.125
    351.00     -1.206
    351.10     -1.273
    351.20     -1.328
    351.30     -1.374
    351.40     -1.414
    351.50     -1.451
    351.60     -1.485
    351.70     -1.513
    351.80     -1.530
    351.90     -1.528
    352.00     -1.500
    352.10     -1.439
    352.20     -1.344
    352.30     -1.217
    352.40     -1.067
    352.50     -0.902
    352.60     -0.736
    352.70     -0.575
    352.80     -0.427
    352.90     -0.289
    353.00     -0.158
    353.10     -0.027
    353.20      0.110
    353.30      0.257
    353.40      0.411
    353.50      0.565
    353.60      0.709
    353.70      0.832
    353.80      0.925
    353.90      0.982
    354.00      1.004
    354.10      0.997
    354.20      0.967
    354.30      0.923
    354.40      0.870
    354.50      0.809
    354.60      0.738
    354.70      0.651
    354.80      0.545
    354.90      0.418
    355.00      0.271
    355.10      0.114
    355.20     -0.044
    355.30     -0.190
    355.40     -0.313
    355.50     -0.407
    355.60     -0.471
    355.70     -0.507
    355.80     -0.522
    355.90     -0.523
    356.00     -0.516
    356.10     -0.503
    356.20     -0.481
    356.30     -0.444
    356.40     -0.388
    356.50     -0.307
    356.60     -0.200
    356.70     -0.072
    356.80      0.069
    356.90      0.214
    357.00      0.350
    357.10      0.469
    357.20      0.564
    357.30      0.635
    357.40      0.683
    357.50      0.713
    357.60      0.729
    357.70      0.736
    357.80      0.733
    357.90      0.720
    358.00      0.693
    358.10      0.645
    358.20      0.571
    358.30      0.470
    358.40      0.342
    358.50      0.191
    358.60      0.024
    358.70     -0.147
    358.80     -0.312
    358.90     -0.460
    359.00     -0.582
    359.10     -0.673
    359.20     -0.730
    359.30     -0.756
    359.40     -0.755
    359.50     -0.732
    359.60     -0.692
    359.70     -0.642
    359.80     -0.583
    359.90     -0.517
    360.00     -0.442
    360.10     -0.356
    360.20     -0.256
    360.30     -0.140
    360.40     -0.008
    360.50      0.138
    360.60      0.293
    360.70      0.454
    360.80      0.612
    360.90      0.760
    361.00      0.892
    361.10      1.001
    361.20      1.083
    361.30      1.134
    361.40      1.152
    361.50      1.138
    361.60      1.092
    361.70      1.018
    361.80      0.921
    361.90      0.806
    362.00      0.679
    362.10      0.547
    362.20      0.413
    362.30      0.280
    362.40      0.149
    362.50      0.016
    362.60     -0.119
    362.70     -0.261
    362.80     -0.409
    362.90     -0.564
    363.00     -0.721
    363.10     -0.874
    363.20     -1.015
    363.30     -1.136
    363.40     -1.231
    363.50     -1.294
    363.60     -1.325
    363.70     -1.324
    363.80     -1.296
    363.90     -1.247
    364.00     -1.183
    364.10     -1.111
    364.20     -1.035
    364.30     -0.957
    364.40     -0.880
    364.50     -0.802
    364.60     -0.723
    364.70     -0.642
    364.80     -0.558
    364.90     -0.471
    365.00     -0.381
    365.10     -0.288
    365.20     -0.195
    365.30     -0.101
    365.40     -0.007
    365.50      0.087
    365.60      0.180
    365.70      0.272
    365.80      0.362
    365.90      0.450
    366.00      0.532
    366.10      0.607
    366.20      0.673
    366.30      0.729
    366.40      0.774
    366.50      0.809
    366.60      0.836
    366.70      0.857
    366.80      0.873
    366.90      0.887
    367.00      0.899
    367.10      0.908
    367.20      0.911
    367.30      0.907
    367.40      0.895
    367.50      0.872
    367.60      0.840
    367.70      0.801
    367.80      0.760
    367.90      0.718
    368.00      0.680
    368.10      0.647
    368.20      0.619
    368.30      0.594
    368.40      0.571
    368.50      0.547
    368.60      0.519
    368.70      0.486
    368.80      0.444
    368.90      0.392
    369.00      0.326
    369.10      0.240
    369.20      0.128
    369.30     -0.014
    369.40     -0.191
    369.50     -0.402
    369.60     -0.642
    369.70     -0.902
    369.80     -1.165
    369.90     -1.417
    370.00     -1.640
    370.10     -1.821
    370.20     -1.950
    370.30     -2.026
    370.40     -2.049
    370.50     -2.026
    370.60     -1.964
    370.70     -1.872
    370.80     -1.755
    370.90     -1.617
    371.00     -1.458
    371.10     -1.279
    371.20     -1.081
    371.30     -0.863
    371.40     -0.629
    371.50     -0.382
    371.60     -0.126
    371.70      0.133
    371.80      0.391
    371.90      0.644
    372.00      0.886
    372.10      1.112
    372.20      1.316
    372.30      1.493
    372.40      1.635
    372.50      1.739
    372.60      1.802
    372.70      1.827
    372.80      1.818
    372.90      1.780
    373.00      1.721
    373.10      1.646
    373.20      1.556
    373.30      1.452
    373.40      1.328
    373.50      1.184
    373.60      1.015
    373.70      0.824
    373.80      0.617
    373.90      0.404
    374.00      0.196
    374.10      0.007
    374.20     -0.157
    374.30     -0.291
    374.40     -0.397
    374.50     -0.481
    374.60     -0.551
    374.70     -0.614
    374.80     -0.675
    374.90     -0.733
    375.00     -0.785
    375.10     -0.824
    375.20     -0.845
    375.30     -0.842
    375.40     -0.814
    375.50     -0.764
    375.60     -0.695
    375.70     -0.612
    375.80     -0.520
    375.90     -0.421
    376.00     -0.315
    376.10     -0.204
    376.20     -0.086
    376.30      0.035
    376.40      0.152
    376.50      0.259
    376.60      0.344
    376.70      0.398
    376.80      0.415
    376.90      0.393
    377.00      0.336
    377.10      0.252
    377.20      0.153
    377.30      0.048
    377.40     -0.051
    377.50     -0.139
    377.60     -0.211
    377.70     -0.266
    377.80     -0.305
    377.90     -0.328
    378.00     -0.336
    378.10     -0.329
    378.20     -0.307
    378.30     -0.273
    378.40     -0.231
    378.50     -0.187
    378.60     -0.147
    378.70     -0.121
    378.80     -0.113
    378.90     -0.127
    379.00     -0.165
    379.10     -0.222
    379.20     -0.295
    379.30     -0.378
    379.40     -0.467
    379.50     -0.559
    379.60     -0.651
    379.70     -0.742
    379.80     -0.830
    379.90     -0.911
    380.00     -0.981
    380.10     -1.031
    380.20     -1.057
    380.30     -1.052
    380.40     -1.013
    380.50     -0.940
    380.60     -0.838
    380.70     -0.713
    380.80     -0.572
    380.90     -0.424
    381.00     -0.275
    381.10     -0.128
    381.20      0.015
    381.30      0.154
    381.40      0.289
    381.50      0.421
    381.60      0.551
    381.70      0.678
    381.80      0.802
    381.90      0.922
    382.00      1.037
    382.10      1.145
    382.20      1.248
    382.30      1.342
    382.40      1.428
    382.50      1.503
    382.60      1.566
    382.70      1.616
    382.80      1.654
    382.90      1.680
    383.00      1.698
    383.10      1.709
    383.20      1.715
    383.30      1.718
    383.40      1.715
    383.50      1.700
    383.60      1.666
    383.70      1.604
    383.80      1.506
    383.90      1.367
    384.00      1.182
    384.10      0.951
    384.20      0.681
    384.30      0.378
    384.40      0.054
    384.50     -0.278
    384.60     -0.603
    384.70     -0.907
    384.80     -1.177
    384.90     -1.402
    385.00     -1.573
    385.10     -1.687
    385.20     -1.742
    385.30     -1.745
    385.40     -1.704
    385.50     -1.632
    385.60     -1.542
    385.70     -1.447
    385.80     -1.356
    385.90     -1.276
    386.00     -1.209
    386.10     -1.152
    386.20     -1.101
    386.30     -1.048
    386.40     -0.990
    386.50     -0.922
    386.60     -0.844
    386.70     -0.757
    386.80     -0.666
    386.90     -0.574
    387.00     -0.489
    387.10     -0.414
    387.20     -0.353
    387.30     -0.308
    387.40     -0.280
    387.50     -0.267
    387.60     -0.265
    387.70     -0.270
    387.80     -0.278
    387.90     -0.283
    388.00     -0.283
    388.10     -0.276
    388.20     -0.262
    388.30     -0.245
    388.40     -0.226
    388.50     -0.208
    388.60     -0.193
    388.70     -0.179
    388.80     -0.160
    388.90     -0.131
    389.00     -0.083
    389.10     -0.013
    389.20      0.081
    389.30      0.195
    389.40      0.321
    389.50      0.447
    389.60      0.561
    389.70      0.653
    389.80      0.717
    389.90      0.753
    390.00      0.769
    390.10      0.775
    390.20      0.784
    390.30      0.806
    390.40      0.846
    390.50      0.904
    390.60      0.976
    390.70      1.052
    390.80      1.121
    390.90      1.175
    391.00      1.207
    391.10      1.216
    391.20      1.204
    391.30      1.175
    391.40      1.134
    391.50      1.087
    391.60      1.035
    391.70      0.980
    391.80      0.923
    391.90      0.862
    392.00      0.798
    392.10      0.733
    392.20      0.669
    392.30      0.607
    392.40      0.548
    392.50      0.490
    392.60      0.432
    392.70      0.368
    392.80      0.292
    392.90      0.199
    393.00      0.086
    393.10     -0.049
    393.20     -0.205
    393.30     -0.381
    393.40     -0.572
    393.50     -0.773
    393.60     -0.979
    393.70     -1.183
    393.80     -1.379
    393.90     -1.558
    394.00     -1.712
    394.10     -1.833
    394.20     -1.914
    394.30     -1.953
    394.40     -1.950
    394.50     -1.910
    394.60     -1.843
    394.70     -1.759
    394.80     -1.671
    394.90     -1.586
    395.00     -1.510
    395.10     -1.442
    395.20     -1.378
    395.30     -1.311
    395.40     -1.232
    395.50     -1.136
    395.60     -1.021
    395.70     -0.889
    395.80     -0.746
    395.90     -0.599
    396.00     -0.457
    396.10     -0.323
    396.20     -0.199
    396.30     -0.083
    396.40      0.030
    396.50      0.149
    396.60      0.277
    396.70      0.419
    396.80      0.572
    396.90      0.732
    397.00      0.891
    397.10      1.040
    397.20      1.172
    397.30      1.282
    397.40      1.369
    397.50      1.436
    397.60      1.488
    397.70      1.532
    397.80      1.574
    397.90      1.616
    398.00      1.659
    398.10      1.700
    398.20      1.734
    398.30      1.755
    398.40      1.761
    398.50      1.748
    398.60      1.718
    398.70      1.675
    398.80      1.623
    398.90      1.566
    399.00      1.509
    399.10      1.450
    399.20      1.389
    399.30      1.322
    399.40      1.244
    399.50      1.154
    399.60      1.050
    399.70      0.934
    399.80      0.813
    399.90      0.691
    400.00      0.577
    400.10      0.474
    400.20      0.384
    400.30      0.307
    400.40      0.238
    400.50      0.170
    400.60      0.098
    400.70      0.016
    400.80     -0.081
    400.90     -0.193
    401.00     -0.321
    401.10     -0.466
    401.20     -0.626
    401.30     -0.801
    401.40     -0.994
    401.50     -1.204
    401.60     -1.431
    401.70     -1.672
    401.80     -1.921
    401.90     -2.168
    402.00     -2.402
    402.10     -2.612
    402.20     -2.786
    402.30     -2.917
    402.40     -3.003
    402.50     -3.045
    402.60     -3.049
    402.70     -3.023
    402.80     -2.977
    402.90     -2.917
    403.00     -2.848
    403.10     -2.771
    403.20     -2.685
    403.30     -2.584
    403.40     -2.464
    403.50     -2.320
    403.60     -2.149
    403.70     -1.952
    403.80     -1.730
    403.90     -1.488
    404.00     -1.229
    404.10     -0.960
    404.20     -0.682
    404.30     -0.399
    404.40     -0.110
    404.50      0.185
    404.60      0.489
    404.70      0.802
    404.80      1.122
    404.90      1.446
    405.00      1.766
    405.10      2.076
    405.20      2.364
    405.30      2.624
    405.40      2.848
    405.50      3.035
    405.60      3.186
    405.70      3.305
    405.80      3.397
    405.90      3.470
    406.00      3.525
    406.10      3.565
    406.20      3.585
    406.30      3.581
    406.40      3.548
    406.50      3.481
    406.60      3.380
    406.70      3.246
    406.80      3.085
    406.90      2.904
    407.00      2.709
    407.10      2.504
    407.20      2.288
    407.30      2.059
    407.40      1.810
    407.50      1.537
    407.60      1.236
    407.70      0.909
    407.80      0.562
    407.90      0.206
    408.00     -0.146
    408.10     -0.481
    408.20     -0.790
    408.30     -1.068
    408.40     -1.316
    408.50     -1.538
    408.60     -1.739
    408.70     -1.928
    408.80     -2.109
    408.90     -2.281
    409.00     -2.445
    409.10     -2.596
    409.20     -2.728
    409.30     -2.838
    409.40     -2.923
    409.50     -2.979
    409.60     -3.006
    409.70     -3.002
    409.80     -2.966
    409.90     -2.897
    410.00     -2.793
    410.10     -2.658
    410.20     -2.495
    410.30     -2.312
    410.40     -2.119
    410.50     -1.927
    410.60     -1.745
    410.70     -1.577
    410.80     -1.426
    410.90     -1.284
    411.00     -1.146
    411.10     -1.000
    411.20     -0.839
    411.30     -0.657
    411.40     -0.455
    411.50     -0.237
    411.60     -0.010
    411.70      0.217
    411.80      0.436
    411.90      0.644
    412.00      0.839
    412.10      1.021
    412.20      1.191
    412.30      1.350
    412.40      1.497
    412.50      1.629
    412.60      1.740
    412.70      1.828
    412.80      1.891
    412.90      1.927
    413.00      1.940
    413.10      1.934
    413.20      1.912
    413.30      1.878
    413.40      1.832
    413.50      1.770
    413.60      1.690
    413.70      1.586
    413.80      1.459
    413.90      1.308
    414.00      1.139
    414.10      0.960
    414.20      0.777
    414.30      0.600
    414.40      0.432
    414.50      0.274
    414.60      0.125
    414.70     -0.018
    414.80     -0.159
    414.90     -0.298
    415.00     -0.436
    415.10     -0.569
    415.20     -0.695
    415.30     -0.809
    415.40     -0.910
    415.50     -0.998
    415.60     -1.074
    415.70     -1.139
    415.80     -1.196
    415.90     -1.242
    416.00     -1.274
    416.10     -1.286
    416.20     -1.271
    416.30     -1.223
    416.40     -1.140
    416.50     -1.022
    416.60     -0.876
    416.70     -0.710
    416.80     -0.533
    416.90     -0.355
    417.00     -0.185
    417.10     -0.029
    417.20      0.110
    417.30      0.231
    417.40      0.334
    417.50      0.418
    417.60      0.486
    417.70      0.537
    417.80      0.575
    417.90      0.603
    418.00      0.625
    418.10      0.647
    418.20      0.673
    418.30      0.705
    418.40      0.745
    418.50      0.787
    418.60      0.826
    418.70      0.853
    418.80      0.860
    418.90      0.840
    419.00      0.791
    419.10      0.715
    419.20      0.618
    419.30      0.510
    419.40      0.402
    419.50      0.303
    419.60      0.222
    419.70      0.163
    419.80      0.127
    419.90      0.111
    420.00      0.108
    420.10      0.112
    420.20      0.113
    420.30      0.107
    420.40      0.086
    420.50      0.049
    420.60     -0.006
    420.70     -0.074
    420.80     -0.153
    420.90     -0.237
    421.00     -0.319
    421.10     -0.395
    421.20     -0.460
    421.30     -0.512
    421.40     -0.552
    421.50     -0.581
    421.60     -0.601
    421.70     -0.616
    421.80     -0.626
    421.90     -0.632
    422.00     -0.634
    422.10     -0.630
    422.20     -0.618
    422.30     -0.599
    422.40     -0.573
    422.50     -0.542
    422.60     -0.508
    422.70     -0.473
    422.80     -0.440
    422.90     -0.408
    423.00     -0.379
    423.10     -0.350
    423.20     -0.322
    423.30     -0.293
    423.40     -0.264
    423.50     -0.235
    423.60     -0.208
    423.70     -0.184
    423.80     -0.162
    423.90     -0.141
    424.00     -0.120
    424.10     -0.096
    424.20     -0.067
    424.30     -0.033
    424.40      0.005
    424.50      0.046
    424.60      0.085
    424.70      0.122
    424.80      0.155
    424.90      0.185
    425.00      0.213
    425.10      0.244
    425.20      0.278
    425.30      0.319
    425.40      0.364
    425.50      0.411
    425.60      0.453
    425.70      0.485
    425.80      0.502
    425.90      0.499
    426.00      0.476
    426.10      0.433
    426.20      0.375
    426.30      0.306
    426.40      0.231
    426.50      0.154
    426.60      0.079
    426.70      0.010
    426.80     -0.051
    426.90     -0.103
    427.00     -0.144
    427.10     -0.174
    427.20     -0.193
    427.30     -0.202
    427.40     -0.204
    427.50     -0.203
    427.60     -0.200
    427.70     -0.198
    427.80     -0.196
    427.90     -0.192
    428.00     -0.183
    428.10     -0.163
    428.20     -0.131
    428.30     -0.085
    428.40     -0.026
    428.50      0.041
    428.60      0.110
    428.70      0.177
    428.80      0.238
    428.90      0.293
    429.00      0.345
    429.10      0.401
    429.20      0.466
    429.30      0.545
    429.40      0.641
    429.50      0.751
    429.60      0.867
    429.70      0.978
    429.80      1.071
    429.90      1.136
    430.00      1.164
    430.10      1.151
    430.20      1.095
    430.30      1.002
    430.40      0.877
    430.50      0.728
    430.60      0.560
    430.70      0.380
    430.80      0.194
    430.90      0.004
    431.00     -0.185
    431.10     -0.369
    431.20     -0.543
    431.30     -0.704
    431.40     -0.847
    431.50     -0.972
    431.60     -1.079
    431.70     -1.167
    431.80     -1.239
    431.90     -1.296
    432.00     -1.340
    432.10     -1.371
    432.20     -1.386
    432.30     -1.386
    432.40     -1.370
    432.50     -1.336
    432.60     -1.288
    432.70     -1.227
    432.80     -1.155
    432.90     -1.076
    433.00     -0.989
    433.10     -0.892
    433.20     -0.782
    433.30     -0.653
    433.40     -0.503
    433.50     -0.329
    433.60     -0.132
    433.70      0.081
    433.80      0.302
    433.90      0.518
    434.00      0.716
    434.10      0.886
    434.20      1.020
    434.30      1.113
    434.40      1.169
    434.50      1.192
    434.60      1.189
    434.70      1.170
    434.80      1.141
    434.90      1.106
    435.00      1.067
    435.10      1.023
    435.20      0.972
    435.30      0.911
    435.40      0.841
    435.50      0.761
    435.60      0.674
    435.70      0.586
    435.80      0.499
    435.90      0.418
    436.00      0.345
    436.10      0.278
    436.20      0.215
    436.30      0.153
    436.40      0.087
    436.50      0.017
    436.60     -0.060
    436.70     -0.141
    436.80     -0.223
    436.90     -0.303
    437.00     -0.379
    437.10     -0.449
    437.20     -0.512
    437.30     -0.571
    437.40     -0.625
    437.50     -0.676
    437.60     -0.723
    437.70     -0.762
    437.80     -0.790
    437.90     -0.800
    438.00     -0.790
    438.10     -0.758
    438.20     -0.704
    438.30     -0.633
    438.40     -0.550
    438.50     -0.465
    438.60     -0.384
    438.70     -0.312
    438.80     -0.253
    438.90     -0.209
    439.00     -0.178
    439.10     -0.160
    439.20     -0.152
    439.30     -0.153
    439.40     -0.164
    439.50     -0.182
    439.60     -0.206
    439.70     -0.234
    439.80     -0.260
    439.90     -0.280
    440.00     -0.290
    440.10     -0.284
    440.20     -0.263
    440.30     -0.226
    440.40     -0.177
    440.50     -0.119
    440.60     -0.057
    440.70      0.008
    440.80      0.074
    440.90      0.141
    441.00      0.212
    441.10      0.287
    441.20      0.368
    441.30      0.453
    441.40      0.538
    441.50      0.620
    441.60      0.693
    441.70      0.754
    441.80      0.803
    441.90      0.839
    442.00      0.864
    442.10      0.881
    442.20      0.891
    442.30      0.895
    442.40      0.891
    442.50      0.877
    442.60      0.851
    442.70      0.812
    442.80      0.761
    442.90      0.701
    443.00      0.638
    443.10      0.578
    443.20      0.524
    443.30      0.482
    443.40      0.449
    443.50      0.424
    443.60      0.401
    443.70      0.374
    443.80      0.339
    443.90      0.292
    444.00      0.235
    444.10      0.169
    444.20      0.100
    444.30      0.033
    444.40     -0.027
    444.50     -0.074
    444.60     -0.106
    444.70     -0.125
    444.80     -0.132
    444.90     -0.132
    445.00     -0.131
    445.10     -0.136
    445.20     -0.154
    445.30     -0.187
    445.40     -0.239
    445.50     -0.308
    445.60     -0.389
    445.70     -0.477
    445.80     -0.564
    445.90     -0.645
    446.00     -0.717
    446.10     -0.780
    446.20     -0.837
    446.30     -0.896
    446.40     -0.962
    446.50     -1.039
    446.60     -1.125
    446.70     -1.214
    446.80     -1.297
    446.90     -1.360
    447.00     -1.392
    447.10     -1.387
    447.20     -1.343
    447.30     -1.269
    447.40     -1.176
    447.50     -1.081
    447.60     -0.998
    447.70     -0.937
    447.80     -0.900
    447.90     -0.881
    448.00     -0.870
    448.10     -0.853
    448.20     -0.819
    448.30     -0.762
    448.40     -0.680
    448.50     -0.578
    448.60     -0.466
    448.70     -0.352
    448.80     -0.240
    448.90     -0.131
    449.00     -0.022
    449.10      0.096
    449.20      0.230
    449.30      0.383
    449.40      0.554
    449.50      0.734
    449.60      0.912
    449.70      1.073
    449.80      1.205
    449.90      1.300
    450.00      1.358
    450.10      1.384
    450.20      1.391
    450.30      1.390
    450.40      1.394
    450.50      1.411
    450.60      1.445
    450.70      1.492
    450.80      1.548
    450.90      1.606
    451.00      1.658
    451.10      1.698
    451.20      1.720
    451.30      1.723
    451.40      1.703
    451.50      1.659
    451.60      1.591
    451.70      1.498
    451.80      1.382
    451.90      1.248
    452.00      1.102
    452.10      0.951
    452.20      0.802
    452.30      0.660
    452.40      0.527
    452.50      0.400
    452.60      0.274
    452.70      0.143
    452.80      0.001
    452.90     -0.156
    453.00     -0.328
    453.10     -0.509
    453.20     -0.691
    453.30     -0.864
    453.40     -1.019
    453.50     -1.147
    453.60     -1.244
    453.70     -1.309
    453.80     -1.348
    453.90     -1.364
    454.00     -1.366
    454.10     -1.361
    454.20     -1.355
    454.30     -1.352
    454.40     -1.354
    454.50     -1.362
    454.60     -1.375
    454.70     -1.387
    454.80     -1.395
    454.90     -1.391
    455.00     -1.370
    455.10     -1.328
    455.20     -1.261
    455.30     -1.171
    455.40     -1.062
    455.50     -0.942
    455.60     -0.821
    455.70     -0.709
    455.80     -0.614
    455.90     -0.540
    456.00     -0.488
    456.10     -0.453
    456.20     -0.429
    456.30     -0.407
    456.40     -0.380
    456.50     -0.341
    456.60     -0.287
    456.70     -0.220
    456.80     -0.141
    456.90     -0.054
    457.00      0.039
    457.10      0.135
    457.20      0.235
    457.30      0.339
    457.40      0.448
    457.50      0.562
    457.60      0.681
    457.70      0.802
    457.80      0.920
    457.90      1.030
    458.00      1.126
    458.10      1.204
    458.20      1.259
    458.30      1.290
    458.40      1.296
    458.50      1.278
    458.60      1.239
    458.70      1.181
    458.80      1.108
    458.90      1.024
    459.00      0.930
    459.10      0.830
    459.20      0.725
    459.30      0.615
    459.40      0.503
    459.50      0.389
    459.60      0.274
    459.70      0.160
    459.80      0.050
    459.90     -0.053
    460.00     -0.147
    460.10     -0.230
    460.20     -0.301
    460.30     -0.361
    460.40     -0.412
    460.50     -0.455
    460.60     -0.489
    460.70     -0.516
    460.80     -0.532
    460.90     -0.534
    461.00     -0.518
    461.10     -0.479
    461.20     -0.418
    461.30     -0.334
    461.40     -0.235
    461.50     -0.127
    461.60     -0.020
    461.70      0.077
    461.80      0.157
    461.90      0.216
    462.00      0.252
    462.10      0.268
    462.20      0.267
    462.30      0.256
    462.40      0.238
    462.50      0.216
    462.60      0.192
    462.70      0.167
    462.80      0.142
    462.90      0.117
    463.00      0.094
    463.10      0.073
    463.20      0.057
    463.30      0.047
    463.40      0.042
    463.50      0.041
    463.60      0.043
    463.70      0.043
    463.80      0.039
    463.90      0.030
    464.00      0.013
    464.10     -0.013
    464.20     -0.051
    464.30     -0.102
    464.40     -0.168
    464.50     -0.253
    464.60     -0.356
    464.70     -0.475
    464.80     -0.606
    464.90     -0.738
    465.00     -0.859
    465.10     -0.956
    465.20     -1.016
    465.30     -1.031
    465.40     -0.995
    465.50     -0.912
    465.60     -0.789
    465.70     -0.638
    465.80     -0.472
    465.90     -0.307
    466.00     -0.151
    466.10     -0.013
    466.20      0.104
    466.30      0.200
    466.40      0.276
    466.50      0.335
    466.60      0.377
    466.70      0.406
    466.80      0.420
    466.90      0.422
    467.00      0.413
    467.10      0.395
    467.20      0.373
    467.30      0.350
    467.40      0.331
    467.50      0.318
    467.60      0.313
    467.70      0.317
    467.80      0.327
    467.90      0.343
    468.00      0.362
    468.10      0.384
    468.20      0.409
    468.30      0.435
    468.40      0.464
    468.50      0.494
    468.60      0.523
    468.70      0.549
    468.80      0.568
    468.90      0.576
    469.00      0.572
    469.10      0.553
    469.20      0.519
    469.30      0.470
    469.40      0.409
    469.50      0.337
    469.60      0.257
    469.70      0.171
    469.80      0.080
    469.90     -0.012
    470.00     -0.106
    470.10     -0.197
    470.20     -0.286
    470.30     -0.370
    470.40     -0.449
    470.50     -0.521
    470.60     -0.587
    470.70     -0.649
    470.80     -0.705
    470.90     -0.758
    471.00     -0.806
    471.10     -0.847
    471.20     -0.877
    471.30     -0.893
    471.40     -0.891
    471.50     -0.866
    471.60     -0.819
    471.70     -0.749
    471.80     -0.661
    471.90     -0.560
    472.00     -0.455
    472.10     -0.353
    472.20     -0.261
    472.30     -0.185
    472.40     -0.126
    472.50     -0.084
    472.60     -0.058
    472.70     -0.042
    472.80     -0.033
    472.90     -0.026
    473.00     -0.018
    473.10     -0.005
    473.20      0.012
    473.30      0.037
    473.40      0.071
    473.50      0.115
    473.60      0.173
    473.70      0.246
    473.80      0.337
    473.90      0.443
    474.00      0.561
    474.10      0.686
    474.20      0.810
    474.30      0.925
    474.40      1.022
    474.50      1.096
    474.60      1.143
    474.70      1.164
    474.80      1.159
    474.90      1.131
    475.00      1.081
    475.10      1.010
    475.20      0.917
    475.30      0.800
    475.40      0.660
    475.50      0.497
    475.60      0.316
    475.70      0.126
    475.80     -0.063
    475.90     -0.237
    476.00     -0.387
    476.10     -0.503
    476.20     -0.583
    476.30     -0.628
    476.40     -0.641
    476.50     -0.629
    476.60     -0.600
    476.70     -0.557
    476.80     -0.503
    476.90     -0.438
    477.00     -0.364
    477.10     -0.279
    477.20     -0.188
    477.30     -0.097
    477.40     -0.013
    477.50      0.054
    477.60      0.096
    477.70      0.106
    477.80      0.084
    477.90      0.030
    478.00     -0.048
    478.10     -0.144
    478.20     -0.249
    478.30     -0.357
    478.40     -0.463
    478.50     -0.564
    478.60     -0.659
    478.70     -0.744
    478.80     -0.817
    478.90     -0.873
    479.00     -0.908
    479.10     -0.916
    479.20     -0.896
    479.30     -0.848
    479.40     -0.774
    479.50     -0.682
    479.60     -0.577
    479.70     -0.465
    479.80     -0.351
    479.90     -0.237
    480.00     -0.125
    480.10     -0.014
    480.20      0.094
    480.30      0.198
    480.40      0.293
    480.50      0.375
    480.60      0.439
    480.70      0.482
    480.80      0.503
    480.90      0.505
    481.00      0.494
    481.10      0.478
    481.20      0.466
    481.30      0.462
    481.40      0.470
    481.50      0.490
    481.60      0.519
    481.70      0.552
    481.80      0.584
    481.90      0.611
    482.00      0.629
    482.10      0.638
    482.20      0.637
    482.30      0.627
    482.40      0.610
    482.50      0.586
    482.60      0.557
    482.70      0.523
    482.80      0.486
    482.90      0.448
    483.00      0.412
    483.10      0.377
    483.20      0.345
    483.30      0.315
    483.40      0.283
    483.50      0.248
    483.60      0.207
    483.70      0.159
    483.80      0.107
    483.90      0.051
    484.00     -0.003
    484.10     -0.052
    484.20     -0.094
    484.30     -0.130
    484.40     -0.162
    484.50     -0.194
    484.60     -0.232
    484.70     -0.278
    484.80     -0.334
    484.90     -0.398
    485.00     -0.469
    485.10     -0.540
    485.20     -0.607
    485.30     -0.669
    485.40     -0.722
    485.50     -0.767
    485.60     -0.804
    485.70     -0.833
    485.80     -0.850
    485.90     -0.854
    486.00     -0.840
    486.10     -0.806
    486.20     -0.752
    486.30     -0.682
    486.40     -0.602
    486.50     -0.521
    486.60     -0.448
    486.70     -0.389
    486.80     -0.347
    486.90     -0.320
    487.00     -0.301
    487.10     -0.282
    487.20     -0.256
    487.30     -0.219
    487.40     -0.171
    487.50     -0.116
    487.60     -0.062
    487.70     -0.016
    487.80      0.015
    487.90      0.032
    488.00      0.037
    488.10      0.039
    488.20      0.049
    488.30      0.075
    488.40      0.124
    488.50      0.198
    488.60      0.293
    488.70      0.403
    488.80      0.519
    488.90      0.634
    489.00      0.741
    489.10      0.838
    489.20      0.922
    489.30      0.993
    489.40      1.051
    489.50      1.092
    489.60      1.117
    489.70      1.121
    489.80      1.105
    489.90      1.071
    490.00      1.022
    490.10      0.965
    490.20      0.908
    490.30      0.853
    490.40      0.802
    490.50      0.752
    490.60      0.694
    490.70      0.621
    490.80      0.523
    490.90      0.396
    491.00      0.241
    491.10      0.067
    491.20     -0.115
    491.30     -0.286
    491.40     -0.432
    491.50     -0.541
    491.60     -0.606
    491.70     -0.627
    491.80     -0.609
    491.90     -0.563
    492.00     -0.499
    492.10     -0.425
    492.20     -0.349
    492.30     -0.273
    492.40     -0.200
    492.50     -0.130
    492.60     -0.064
    492.70     -0.008
    492.80      0.033
    492.90      0.048
    493.00      0.030
    493.10     -0.029
    493.20     -0.132
    493.30     -0.275
    493.40     -0.451
    493.50     -0.648
    493.60     -0.848
    493.70     -1.037
    493.80     -1.199
    493.90     -1.326
    494.00     -1.411
    494.10     -1.458
    494.20     -1.471
    494.30     -1.459
    494.40     -1.433
    494.50     -1.399
    494.60     -1.363
    494.70     -1.324
    494.80     -1.277
    494.90     -1.216
    495.00     -1.131
    495.10     -1.017
    495.20     -0.868
    495.30     -0.685
    495.40     -0.474
    495.50     -0.242
    495.60     -0.002
    495.70      0.236
    495.80      0.461
    495.90      0.665
    496.00      0.844
    496.10      0.994
    496.20      1.115
    496.30      1.208
    496.40      1.272
    496.50      1.308
    496.60      1.317
    496.70      1.303
    496.80      1.268
    496.90      1.218
    497.00      1.161
    497.10      1.106
    497.20      1.058
    497.30      1.022
    497.40      0.999
    497.50      0.986
    497.60      0.978
    497.70      0.967
    497.80      0.946
    497.90      0.910
    498.00      0.857
    498.10      0.788
    498.20      0.709
    498.30      0.626
    498.40      0.546
    498.50      0.474
    498.60      0.415
    498.70      0.369
    498.80      0.335
    498.90      0.309
    499.00      0.286
    499.10      0.263
    499.20      0.235
    499.30      0.201
    499.40      0.161
    499.50      0.115
    499.60      0.067
    499.70      0.017
    499.80     -0.031
    499.90     -0.076
    500.00     -0.118
    500.10     -0.160
    500.20     -0.204
    500.30     -0.255
    500.40     -0.316
    500.50     -0.388
    500.60     -0.472
    500.70     -0.563
    500.80     -0.654
    500.90     -0.737
    501.00     -0.803
    501.10     -0.845
    501.20     -0.859
    501.30     -0.848
    501.40     -0.817
    501.50     -0.777
    501.60     -0.738
    501.70     -0.712
    501.80     -0.705
    501.90     -0.719
    502.00     -0.752
    502.10     -0.798
    502.20     -0.848
    502.30     -0.893
    502.40     -0.927
    502.50     -0.946
    502.60     -0.950
    502.70     -0.942
    502.80     -0.924
    502.90     -0.899
    503.00     -0.866
    503.10     -0.825
    503.20     -0.772
    503.30     -0.704
    503.40     -0.618
    503.50     -0.515
    503.60     -0.397
    503.70     -0.269
    503.80     -0.137
    503.90     -0.007
    504.00      0.117
    504.10      0.231
    504.20      0.338
    504.30      0.439
    504.40      0.537
    504.50      0.636
    504.60      0.737
    504.70      0.839
    504.80      0.940
    504.90      1.035
    505.00      1.120
    505.10      1.186
    505.20      1.230
    505.30      1.246
    505.40      1.230
    505.50      1.179
    505.60      1.094
    505.70      0.977
    505.80      0.830
    505.90      0.661
    506.00      0.480
    506.10      0.297
    506.20      0.124
    506.30     -0.026
    506.40     -0.145
    506.50     -0.226
    506.60     -0.265
    506.70     -0.265
    506.80     -0.230
    506.90     -0.170
    507.00     -0.094
    507.10     -0.010
    507.20      0.073
    507.30      0.152
    507.40      0.224
    507.50      0.290
    507.60      0.352
    507.70      0.413
    507.80      0.474
    507.90      0.535
    508.00      0.595
    508.10      0.651
    508.20      0.696
    508.30      0.728
    508.40      0.740
    508.50      0.730
    508.60      0.697
    508.70      0.639
    508.80      0.559
    508.90      0.458
    509.00      0.338
    509.10      0.202
    509.20      0.049
    509.30     -0.117
    509.40     -0.295
    509.50     -0.481
    509.60     -0.671
    509.70     -0.860
    509.80     -1.039
    509.90     -1.204
    510.00     -1.348
    510.10     -1.468
    510.20     -1.560
    510.30     -1.626
    510.40     -1.665
    510.50     -1.679
    510.60     -1.670
    510.70     -1.636
    510.80     -1.579
    510.90     -1.497
    511.00     -1.390
    511.10     -1.257
    511.20     -1.099
    511.30     -0.919
    511.40     -0.718
    511.50     -0.502
    511.60     -0.275
    511.70     -0.043
    511.80      0.190
    511.90      0.416
    512.00      0.629
    512.10      0.821
    512.20      0.987
    512.30      1.121
    512.40      1.219
    512.50      1.283
    512.60      1.316
    512.70      1.327
    512.80      1.324
    512.90      1.316
    513.00      1.309
    513.10      1.305
    513.20      1.303
    513.30      1.294
    513.40      1.270
    513.50      1.221
    513.60      1.142
    513.70      1.030
    513.80      0.888
    513.90      0.724
    514.00      0.546
    514.10      0.366
    514.20      0.190
    514.30      0.024
    514.40     -0.131
    514.50     -0.278
    514.60     -0.417
    514.70     -0.550
    514.80     -0.675
    514.90     -0.790
    515.00     -0.888
    515.10     -0.963
    515.20     -1.012
    515.30     -1.031
    515.40     -1.022
    515.50     -0.986
    515.60     -0.929
    515.70     -0.855
    515.80     -0.766
    515.90     -0.666
    516.00     -0.555
    516.10     -0.436
    516.20     -0.310
    516.30     -0.182
    516.40     -0.059
    516.50      0.053
    516.60      0.147
    516.70      0.220
    516.80      0.270
    516.90      0.298
    517.00      0.308
    517.10      0.304
    517.20      0.289
    517.30      0.265
    517.40      0.230
    517.50      0.183
    517.60      0.123
    517.70      0.052
    517.80     -0.026
    517.90     -0.103
    518.00     -0.169
    518.10     -0.214
    518.20     -0.232
    518.30     -0.221
    518.40     -0.184
    518.50     -0.131
    518.60     -0.073
    518.70     -0.022
    518.80      0.014
    518.90      0.032
    519.00      0.033
    519.10      0.023
    519.20      0.013
    519.30      0.011
    519.40      0.022
    519.50      0.049
    519.60      0.090
    519.70      0.138
    519.80      0.187
    519.90      0.229
    520.00      0.258
    520.10      0.273
    520.20      0.272
    520.30      0.256
    520.40      0.228
    520.50      0.188
    520.60      0.139
    520.70      0.083
    520.80      0.021
    520.90     -0.043
    521.00     -0.105
    521.10     -0.160
    521.20     -0.203
    521.30     -0.229
    521.40     -0.235
    521.50     -0.218
    521.60     -0.179
    521.70     -0.117
    521.80     -0.035
    521.90      0.065
    522.00      0.179
    522.10      0.302
    522.20      0.427
    522.30      0.546
    522.40      0.649
    522.50      0.728
    522.60      0.774
    522.70      0.784
    522.80      0.757
    522.90      0.697
    523.00      0.610
    523.10      0.507
    523.20      0.397
    523.30      0.287
    523.40      0.183
    523.50      0.087
    523.60     -0.001
    523.70     -0.083
    523.80     -0.158
    523.90     -0.228
    524.00     -0.291
    524.10     -0.345
    524.20     -0.389
    524.30     -0.422
    524.40     -0.445
    524.50     -0.461
    524.60     -0.474
    524.70     -0.485
    524.80     -0.495
    524.90     -0.503
    525.00     -0.504
    525.10     -0.493
    525.20     -0.467
    525.30     -0.424
    525.40     -0.369
    525.50     -0.307
    525.60     -0.249
    525.70     -0.206
    525.80     -0.184
    525.90     -0.190
    526.00     -0.222
    526.10     -0.276
    526.20     -0.343
    526.30     -0.413
    526.40     -0.477
    526.50     -0.530
    526.60     -0.568
    526.70     -0.590
    526.80     -0.597
    526.90     -0.588
    527.00     -0.563
    527.10     -0.522
    527.20     -0.464
    527.30     -0.389
    527.40     -0.298
    527.50     -0.196
    527.60     -0.089
    527.70      0.015
    527.80      0.111
    527.90      0.193
    528.00      0.262
    528.10      0.321
    528.20      0.372
    528.30      0.423
    528.40      0.474
    528.50      0.527
    528.60      0.579
    528.70      0.623
    528.80      0.654
    528.90      0.666
    529.00      0.658
    529.10      0.633
    529.20      0.598
    529.30      0.563
    529.40      0.537
    529.50      0.527
    529.60      0.539
    529.70      0.569
    529.80      0.612
    529.90      0.658
    530.00      0.697
    530.10      0.718
    530.20      0.714
    530.30      0.680
    530.40      0.616
    530.50      0.525
    530.60      0.412
    530.70      0.283
    530.80      0.145
    530.90      0.005
    531.00     -0.129
    531.10     -0.249
    531.20     -0.350
    531.30     -0.423
    531.40     -0.466
    531.50     -0.474
    531.60     -0.449
    531.70     -0.392
    531.80     -0.311
    531.90     -0.214
    532.00     -0.110
    532.10     -0.009
    532.20      0.083
    532.30      0.158
    532.40      0.216
    532.50      0.255
    532.60      0.278
    532.70      0.286
    532.80      0.280
    532.90      0.262
    533.00      0.228
    533.10      0.177
    533.20      0.104
    533.30      0.007
    533.40     -0.116
    533.50     -0.262
    533.60     -0.424
    533.70     -0.592
    533.80     -0.755
    533.90     -0.900
    534.00     -1.015
    534.10     -1.093
    534.20     -1.131
    534.30     -1.131
    534.40     -1.098
    534.50     -1.039
    534.60     -0.963
    534.70     -0.877
    534.80     -0.783
    534.90     -0.684
    535.00     -0.578
    535.10     -0.463
    535.20     -0.338
    535.30     -0.203
    535.40     -0.061
    535.50      0.084
    535.60      0.225
    535.70      0.356
    535.80      0.471
    535.90      0.567
    536.00      0.640
    536.10      0.691
    536.20      0.717
    536.30      0.717
    536.40      0.691
    536.50      0.636
    536.60      0.552
    536.70      0.441
    536.80      0.308
    536.90      0.160
    537.00      0.009
    537.10     -0.137
    537.20     -0.265
    537.30     -0.370
    537.40     -0.449
    537.50     -0.502
    537.60     -0.535
    537.70     -0.553
    537.80     -0.562
    537.90     -0.568
    538.00     -0.569
    538.10     -0.565
    538.20     -0.551
    538.30     -0.522
    538.40     -0.473
    538.50     -0.403
    538.60     -0.313
    538.70     -0.206
    538.80     -0.086
    538.90      0.041
    539.00      0.171
    539.10      0.303
    539.20      0.433
    539.30      0.561
    539.40      0.687
    539.50      0.809
    539.60      0.924
    539.70      1.029
    539.80      1.119
    539.90      1.191
    540.00      1.243
    540.10      1.274
    540.20      1.286
    540.30      1.282
    540.40      1.268
    540.50      1.247
    540.60      1.223
    540.70      1.197
    540.80      1.172
    540.90      1.145
    541.00      1.117
    541.10      1.085
    541.20      1.049
    541.30      1.009
    541.40      0.966
    541.50      0.922
    541.60      0.877
    541.70      0.833
    541.80      0.790
    541.90      0.746
    542.00      0.696
    542.10      0.636
    542.20      0.558
    542.30      0.457
    542.40      0.327
    542.50      0.165
    542.60     -0.031
    542.70     -0.255
    542.80     -0.501
    542.90     -0.758
    543.00     -1.017
    543.10     -1.267
    543.20     -1.498
    543.30     -1.705
    543.40     -1.887
    543.50     -2.045
    543.60     -2.183
    543.70     -2.307
    543.80     -2.420
    543.90     -2.525
    544.00     -2.621
    544.10     -2.705
    544.20     -2.773
    544.30     -2.818
    544.40     -2.837
    544.50     -2.826
    544.60     -2.784
    544.70     -2.711
    544.80     -2.610
    544.90     -2.484
    545.00     -2.335
    545.10     -2.163
    545.20     -1.970
    545.30     -1.754
    545.40     -1.514
    545.50     -1.250
    545.60     -0.966
    545.70     -0.665
    545.80     -0.355
    545.90     -0.043
    546.00      0.262
    546.10      0.551
    546.20      0.821
    546.30      1.068
    546.40      1.297
    546.50      1.510
    546.60      1.717
    546.70      1.922
    546.80      2.130
    546.90      2.343
    547.00      2.557
    547.10      2.764
    547.20      2.955
    547.30      3.120
    547.40      3.249
    547.50      3.338
    547.60      3.385
    547.70      3.392
    547.80      3.363
    547.90      3.303
    548.00      3.215
    548.10      3.099
    548.20      2.954
    548.30      2.777
    548.40      2.567
    548.50      2.323
    548.60      2.051
    548.70      1.761
    548.80      1.465
    548.90      1.180
    549.00      0.918
    549.10      0.686
    549.20      0.488
    549.30      0.316
    549.40      0.162
    549.50      0.011
    549.60     -0.148
    549.70     -0.323
    549.80     -0.518
    549.90     -0.729
    550.00     -0.946
    550.10     -1.159
    550.20     -1.356
    550.30     -1.529
    550.40     -1.673
    550.50     -1.788
    550.60     -1.877
    550.70     -1.946
    550.80     -2.000
    550.90     -2.043
    551.00     -2.077
    551.10     -2.104
    551.20     -2.123
    551.30     -2.136
    551.40     -2.140
    551.50     -2.135
    551.60     -2.120
    551.70     -2.092
    551.80     -2.051
    551.90     -1.993
    552.00     -1.916
    552.10     -1.822
    552.20     -1.713
    552.30     -1.594
    552.40     -1.471
    552.50     -1.352
    552.60     -1.242
    552.70     -1.142
    552.80     -1.050
    552.90     -0.961
    553.00     -0.868
    553.10     -0.765
    553.20     -0.647
    553.30     -0.513
    553.40     -0.365
    553.50     -0.210
    553.60     -0.054
    553.70      0.096
    553.80      0.239
    553.90      0.374
    554.00      0.503
    554.10      0.630
    554.20      0.758
    554.30      0.887
    554.40      1.017
    554.50      1.142
    554.60      1.256
    554.70      1.356
    554.80      1.439
    554.90      1.507
    555.00      1.562
    555.10      1.611
    555.20      1.658
    555.30      1.704
    555.40      1.749
    555.50      1.788
    555.60      1.813
    555.70      1.819
    555.80      1.799
    555.90      1.750
    556.00      1.672
    556.10      1.570
    556.20      1.445
    556.30      1.302
    556.40      1.141
    556.50      0.963
    556.60      0.765
    556.70      0.548
    556.80      0.314
    556.90      0.066
    557.00     -0.184
    557.10     -0.427
    557.20     -0.650
    557.30     -0.843
    557.40     -1.001
    557.50     -1.121
    557.60     -1.208
    557.70     -1.266
    557.80     -1.304
    557.90     -1.327
    558.00     -1.339
    558.10     -1.341
    558.20     -1.332
    558.30     -1.309
    558.40     -1.269
    558.50     -1.210
    558.60     -1.132
    558.70     -1.038
    558.80     -0.929
    558.90     -0.808
    559.00     -0.678
    559.10     -0.541
    559.20     -0.400
    559.30     -0.257
    559.40     -0.116
    559.50      0.020
    559.60      0.148
    559.70      0.265
    559.80      0.370
    559.90      0.466
    560.00      0.557
    560.10      0.648
    560.20      0.743
    560.30      0.846
    560.40      0.954
    560.50      1.063
    560.60      1.163
    560.70      1.244
    560.80      1.295
    560.90      1.308
    561.00      1.278
    561.10      1.205
    561.20      1.094
    561.30      0.951
    561.40      0.786
    561.50      0.608
    561.60      0.427
    561.70      0.248
    561.80      0.079
    561.90     -0.076
    562.00     -0.215
    562.10     -0.336
    562.20     -0.436
    562.30     -0.516
    562.40     -0.577
    562.50     -0.618
    562.60     -0.641
    562.70     -0.646
    562.80     -0.633
    562.90     -0.600
    563.00     -0.546
    563.10     -0.471
    563.20     -0.377
    563.30     -0.270
    563.40     -0.155
    563.50     -0.043
    563.60      0.056
    563.70      0.134
    563.80      0.186
    563.90      0.211
    564.00      0.213
    564.10      0.201
    564.20      0.182
    564.30      0.165
    564.40      0.155
    564.50      0.154
    564.60      0.157
    564.70      0.158
    564.80      0.149
    564.90      0.123
    565.00      0.075
    565.10      0.004
    565.20     -0.089
    565.30     -0.201
    565.40     -0.326
    565.50     -0.460
    565.60     -0.601
    565.70     -0.746
    565.80     -0.894
    565.90     -1.043
    566.00     -1.189
    566.10     -1.329
    566.20     -1.456
    566.30     -1.563
    566.40     -1.645
    566.50     -1.698
    566.60     -1.719
    566.70     -1.710
    566.80     -1.671
    566.90     -1.605
    567.00     -1.514
    567.10     -1.400
    567.20     -1.265
    567.30     -1.111
    567.40     -0.939
    567.50     -0.754
    567.60     -0.561
    567.70     -0.367
    567.80     -0.176
    567.90      0.005
    568.00      0.176
    568.10      0.336
    568.20      0.491
    568.30      0.645
    568.40      0.803
    568.50      0.970
    568.60      1.145
    568.70      1.325
    568.80      1.504
    568.90      1.674
    569.00      1.825
    569.10      1.951
    569.20      2.048
    569.30      2.116
    569.40      2.158
    569.50      2.180
    569.60      2.190
    569.70      2.191
    569.80      2.186
    569.90      2.174
    570.00      2.150
    570.10      2.107
    570.20      2.037
    570.30      1.934
    570.40      1.795
    570.50      1.621
    570.60      1.418
    570.70      1.193
    570.80      0.957
    570.90      0.721
    571.00      0.492
    571.10      0.277
    571.20      0.077
    571.30     -0.109
    571.40     -0.282
    571.50     -0.444
    571.60     -0.598
    571.70     -0.740
    571.80     -0.867
    571.90     -0.975
    572.00     -1.058
    572.10     -1.114
    572.20     -1.142
    572.30     -1.144
    572.40     -1.128
    572.50     -1.101
    572.60     -1.071
    572.70     -1.045
    572.80     -1.028
    572.90     -1.021
    573.00     -1.022
    573.10     -1.030
    573.20     -1.040
    573.30     -1.050
    573.40     -1.058
    573.50     -1.063
    573.60     -1.065
    573.70     -1.065
    573.80     -1.062
    573.90     -1.054
    574.00     -1.040
    574.10     -1.018
    574.20     -0.986
    574.30     -0.947
    574.40     -0.902
    574.50     -0.855
    574.60     -0.809
    574.70     -0.767
    574.80     -0.731
    574.90     -0.700
    575.00     -0.669
    575.10     -0.637
    575.20     -0.600
    575.30     -0.553
    575.40     -0.497
    575.50     -0.432
    575.60     -0.358
    575.70     -0.276
    575.80     -0.186
    575.90     -0.084
    576.00      0.032
    576.10      0.165
    576.20      0.316
    576.30      0.483
    576.40      0.660
    576.50      0.837
    576.60      1.003
    576.70      1.145
    576.80      1.252
    576.90      1.319
    577.00      1.344
    577.10      1.331
    577.20      1.287
    577.30      1.220
    577.40      1.138
    577.50      1.046
    577.60      0.948
    577.70      0.840
    577.80      0.721
    577.90      0.587
    578.00      0.437
    578.10      0.275
    578.20      0.104
    578.30     -0.065
    578.40     -0.222
    578.50     -0.359
    578.60     -0.466
    578.70     -0.540
    578.80     -0.581
    578.90     -0.593
    579.00     -0.582
    579.10     -0.555
    579.20     -0.522
    579.30     -0.487
    579.40     -0.455
    579.50     -0.429
    579.60     -0.407
    579.70     -0.389
    579.80     -0.371
    579.90     -0.353
    580.00     -0.331
    580.10     -0.305
    580.20     -0.273
    580.30     -0.235
    580.40     -0.190
    580.50     -0.138
    580.60     -0.076
    580.70     -0.006
    580.80      0.073
    580.90      0.160
    581.00      0.252
    581.10      0.347
    581.20      0.440
    581.30      0.528
    581.40      0.607
    581.50      0.674
    581.60      0.731
    581.70      0.777
    581.80      0.814
    581.90      0.845
    582.00      0.871
    582.10      0.890
    582.20      0.902
    582.30      0.903
    582.40      0.892
    582.50      0.865
    582.60      0.823
    582.70      0.765
    582.80      0.697
    582.90      0.621
    583.00      0.543
    583.10      0.466
    583.20      0.393
    583.30      0.325
    583.40      0.263
    583.50      0.205
    583.60      0.152
    583.70      0.105
    583.80      0.065
    583.90      0.035
    584.00      0.016
    584.10      0.008
    584.20      0.010
    584.30      0.017
    584.40      0.024
    584.50      0.024
    584.60      0.011
    584.70     -0.019
    584.80     -0.066
    584.90     -0.129
    585.00     -0.206
    585.10     -0.292
    585.20     -0.382
    585.30     -0.475
    585.40     -0.568
    585.50     -0.660
    585.60     -0.752
    585.70     -0.843
    585.80     -0.933
    585.90     -1.022
    586.00     -1.107
    586.10     -1.188
    586.20     -1.263
    586.30     -1.332
    586.40     -1.393
    586.50     -1.446
    586.60     -1.487
    586.70     -1.516
    586.80     -1.528
    586.90     -1.523
    587.00     -1.499
    587.10     -1.458
    587.20     -1.404
    587.30     -1.344
    587.40     -1.285
    587.50     -1.232
    587.60     -1.189
    587.70     -1.156
    587.80     -1.127
    587.90     -1.095
    588.00     -1.051
    588.10     -0.988
    588.20     -0.898
    588.30     -0.778
    588.40     -0.630
    588.50     -0.454
    588.60     -0.256
    588.70     -0.038
    588.80      0.197
    588.90      0.447
    589.00      0.708
    589.10      0.975
    589.20      1.242
    589.30      1.498
    589.40      1.733
    589.50      1.933
    589.60      2.093
    589.70      2.208
    589.80      2.280
    589.90      2.317
    590.00      2.330
    590.10      2.328
    590.20      2.319
    590.30      2.306
    590.40      2.287
    590.50      2.256
    590.60      2.204
    590.70      2.126
    590.80      2.018
    590.90      1.885
    591.00      1.735
    591.10      1.578
    591.20      1.426
    591.30      1.285
    591.40      1.159
    591.50      1.045
    591.60      0.938
    591.70      0.829
    591.80      0.712
    591.90      0.583
    592.00      0.443
    592.10      0.296
    592.20      0.145
    592.30     -0.005
    592.40     -0.152
    592.50     -0.299
    592.60     -0.450
    592.70     -0.611
    592.80     -0.784
    592.90     -0.970
    593.00     -1.165
    593.10     -1.358
    593.20     -1.540
    593.30     -1.698
    593.40     -1.823
    593.50     -1.911
    593.60     -1.962
    593.70     -1.981
    593.80     -1.976
    593.90     -1.954
    594.00     -1.925
    594.10     -1.892
    594.20     -1.860
    594.30     -1.829
    594.40     -1.799
    594.50     -1.768
    594.60     -1.736
    594.70     -1.700
    594.80     -1.662
    594.90     -1.618
    595.00     -1.568
    595.10     -1.509
    595.20     -1.440
    595.30     -1.358
    595.40     -1.262
    595.50     -1.154
    595.60     -1.032
    595.70     -0.898
    595.80     -0.753
    595.90     -0.595
    596.00     -0.425
    596.10     -0.242
    596.20     -0.049
    596.30      0.154
    596.40      0.359
    596.50      0.561
    596.60      0.753
    596.70      0.929
    596.80      1.085
    596.90      1.222
    597.00      1.343
    597.10      1.451
    597.20      1.553
    597.30      1.651
    597.40      1.746
    597.50      1.833
    597.60      1.907
    597.70      1.961
    597.80      1.991
    597.90      1.994
    598.00      1.973
    598.10      1.935
    598.20      1.889
    598.30      1.843
    598.40      1.805
    598.50      1.775
    598.60      1.751
    598.70      1.724
    598.80      1.683
    598.90      1.618
    599.00      1.520
    599.10      1.385
    599.20      1.215
    599.30      1.016
    599.40      0.797
    599.50      0.570
    599.60      0.345
    599.70      0.130
    599.80     -0.068
    599.90     -0.248
